File: data/Reflectance_measurements/Reflectance_2019_material/13/13_1.txt
Unit Serial No : 240-IM0P2424-EU
Integration Time : 10 ms
Time Average: 10
Binning Average: 2
FFT Smoothing: 0%
Project Name : RPS900-R
Sample Name :  SM240-IMOP2424-EU
Measurement No : 1
Measurement Time : 06/03/2019   14:52:58

Wavelength(nm)	Wavenumber(1/cm)	Transmittance(%)
300.0000      	33333.3    	15.00901
302.0000      	33112.6    	14.43056
304.0000      	32894.7    	13.01614
306.0000      	32679.7    	11.70402
308.0000      	32467.5    	11.18683
310.0000      	32258.1    	11.77342
312.0000      	32051.3    	10.60167
314.0000      	31847.1    	10.10591
316.0000      	31645.6    	10.79240
318.0000      	31446.5    	9.53902
320.0000      	31250    	8.84772
322.0000      	31055.9    	9.06467
324.0000      	30864.2    	8.22643
326.0000      	30674.8    	8.48562
328.0000      	30487.8    	8.08488
330.0000      	30303    	7.55924
332.0000      	30120.5    	8.58453
334.0000      	29940.1    	8.08046
336.0000      	29761.9    	8.10983
338.0000      	29585.8    	8.43149
340.0000      	29411.8    	7.65828
342.0000      	29239.8    	8.29858
344.0000      	29069.8    	8.23688
346.0000      	28901.7    	8.18901
348.0000      	28735.6    	8.82311
350.0000      	28571.4    	9.05350
352.0000      	28409.1    	9.15674
354.0000      	28248.6    	9.90719
356.0000      	28089.9    	10.07445
358.0000      	27933    	10.67946
360.0000      	27777.8    	11.55599
362.0000      	27624.3    	11.87043
364.0000      	27472.5    	11.87269
366.0000      	27322.4    	12.42070
368.0000      	27173.9    	12.85317
370.0000      	27027    	13.63676
372.0000      	26881.7    	14.01784
374.0000      	26738    	14.31397
376.0000      	26595.7    	15.31611
378.0000      	26455    	16.11598
380.0000      	26315.8    	17.00692
382.0000      	26178    	17.77928
384.0000      	26041.7    	18.44295
386.0000      	25906.7    	19.30542
388.0000      	25773.2    	20.34658
390.0000      	25641    	21.26983
392.0000      	25510.2    	21.77300
394.0000      	25380.7    	22.86568
396.0000      	25252.5    	23.75868
398.0000      	25125.6    	25.29704
400.0000      	25000    	26.65804
402.0000      	24875.6    	27.77557
404.0000      	24752.5    	29.88182
406.0000      	24630.5    	32.04930
408.0000      	24509.8    	34.51193
410.0000      	24390.2    	36.84263
412.0000      	24271.8    	38.75175
414.0000      	24154.6    	41.07797
416.0000      	24038.5    	43.04588
418.0000      	23923.4    	44.00204
420.0000      	23809.5    	44.85186
422.0000      	23696.7    	45.45312
424.0000      	23584.9    	46.14187
426.0000      	23474.2    	47.27036
428.0000      	23364.5    	47.86431
430.0000      	23255.8    	48.39961
432.0000      	23148.1    	49.29175
434.0000      	23041.5    	49.79749
436.0000      	22935.8    	50.51205
438.0000      	22831.1    	50.84997
440.0000      	22727.3    	50.97244
442.0000      	22624.4    	50.93311
444.0000      	22522.5    	50.97269
446.0000      	22421.5    	50.62252
448.0000      	22321.4    	50.06147
450.0000      	22222.2    	49.27305
452.0000      	22123.9    	49.37534
454.0000      	22026.4    	49.42301
456.0000      	21929.8    	49.38716
458.0000      	21834.1    	48.97821
460.0000      	21739.1    	49.14723
462.0000      	21645    	49.14608
464.0000      	21551.7    	49.16647
466.0000      	21459.2    	49.27737
468.0000      	21367.5    	49.01504
470.0000      	21276.6    	49.25894
472.0000      	21186.4    	49.51701
474.0000      	21097    	49.98157
476.0000      	21008.4    	50.20095
478.0000      	20920.5    	50.34756
480.0000      	20833.3    	50.43666
482.0000      	20746.9    	50.72743
484.0000      	20661.2    	50.80867
486.0000      	20576.1    	50.91262
488.0000      	20491.8    	51.13264
490.0000      	20408.2    	51.39272
492.0000      	20325.2    	51.59603
494.0000      	20242.9    	51.89285
496.0000      	20161.3    	52.07398
498.0000      	20080.3    	52.15444
500.0000      	20000    	52.36151
502.0000      	19920.3    	52.17231
504.0000      	19841.3    	52.27124
506.0000      	19762.8    	52.12543
508.0000      	19685    	51.87632
510.0000      	19607.8    	51.57397
512.0000      	19531.2    	51.08731
514.0000      	19455.3    	50.64911
516.0000      	19379.8    	50.23159
518.0000      	19305    	49.50146
520.0000      	19230.8    	49.03424
522.0000      	19157.1    	48.29105
524.0000      	19084    	47.54518
526.0000      	19011.4    	46.96713
528.0000      	18939.4    	46.45516
530.0000      	18867.9    	45.99398
532.0000      	18797    	45.53732
534.0000      	18726.6    	45.31944
536.0000      	18656.7    	44.99970
538.0000      	18587.4    	44.88915
540.0000      	18518.5    	44.88051
542.0000      	18450.2    	44.72434
544.0000      	18382.4    	44.58500
546.0000      	18315    	44.56333
548.0000      	18248.2    	44.47484
550.0000      	18181.8    	44.20334
552.0000      	18115.9    	43.84775
554.0000      	18050.5    	43.45279
556.0000      	17985.6    	42.78555
558.0000      	17921.1    	42.24798
560.0000      	17857.1    	41.72519
562.0000      	17793.6    	41.13788
564.0000      	17730.5    	40.57167
566.0000      	17667.8    	39.96347
568.0000      	17605.6    	39.62659
570.0000      	17543.9    	39.40837
572.0000      	17482.5    	39.50692
574.0000      	17421.6    	39.69741
576.0000      	17361.1    	40.01944
578.0000      	17301    	40.72247
580.0000      	17241.4    	41.81931
582.0000      	17182.1    	42.67340
584.0000      	17123.3    	43.42749
586.0000      	17064.8    	44.29211
588.0000      	17006.8    	44.79976
590.0000      	16949.2    	45.44233
592.0000      	16891.9    	46.16285
594.0000      	16835    	46.43975
596.0000      	16778.5    	46.87332
598.0000      	16722.4    	46.99322
600.0000      	16666.7    	46.84861
602.0000      	16611.3    	47.11834
604.0000      	16556.3    	47.08621
606.0000      	16501.7    	47.14299
608.0000      	16447.4    	47.07263
610.0000      	16393.4    	46.93895
612.0000      	16339.9    	47.07993
614.0000      	16286.6    	47.02901
616.0000      	16233.8    	47.01368
618.0000      	16181.2    	46.84715
620.0000      	16129    	46.89572
622.0000      	16077.2    	46.86335
624.0000      	16025.6    	46.68682
626.0000      	15974.4    	46.73872
628.0000      	15923.6    	47.02174
630.0000      	15873    	47.05059
632.0000      	15822.8    	47.13181
634.0000      	15772.9    	47.36326
636.0000      	15723.3    	47.48246
638.0000      	15674    	47.65598
640.0000      	15625    	47.85149
642.0000      	15576.3    	48.06819
644.0000      	15528    	48.51550
646.0000      	15479.9    	48.81917
648.0000      	15432.1    	49.00090
650.0000      	15384.6    	49.54000
652.0000      	15337.4    	49.92167
654.0000      	15290.5    	50.10366
656.0000      	15243.9    	50.65725
658.0000      	15197.6    	50.84176
660.0000      	15151.5    	51.38068
662.0000      	15105.7    	51.58576
664.0000      	15060.2    	51.58064
666.0000      	15015    	51.68570
668.0000      	14970.1    	51.93752
670.0000      	14925.4    	51.79504
672.0000      	14881    	51.82284
674.0000      	14836.8    	51.83656
676.0000      	14792.9    	51.73943
678.0000      	14749.3    	51.62534
680.0000      	14705.9    	51.37869
682.0000      	14662.8    	51.21719
684.0000      	14619.9    	51.01374
686.0000      	14577.3    	50.81690
688.0000      	14534.9    	50.61016
690.0000      	14492.8    	50.61972
692.0000      	14450.9    	50.45902
694.0000      	14409.2    	50.39623
696.0000      	14367.8    	50.44207
698.0000      	14326.6    	50.26797
700.0000      	14285.7    	50.29383
702.0000      	14245    	50.25697
704.0000      	14204.5    	50.13342
706.0000      	14164.3    	49.64200
708.0000      	14124.3    	49.72523
710.0000      	14084.5    	49.72149
712.0000      	14044.9    	49.40166
714.0000      	14005.6    	49.33083
716.0000      	13966.5    	49.47289
718.0000      	13927.6    	49.45178
720.0000      	13888.9    	49.54294
722.0000      	13850.4    	49.97013
724.0000      	13812.2    	50.08842
726.0000      	13774.1    	50.33289
728.0000      	13736.3    	50.32413
730.0000      	13698.6    	50.76925
732.0000      	13661.2    	50.77959
734.0000      	13624    	51.20473
736.0000      	13587    	51.53857
738.0000      	13550.1    	52.11716
740.0000      	13513.5    	52.40351
742.0000      	13477.1    	52.60891
744.0000      	13440.9    	53.58125
746.0000      	13404.8    	53.64154
748.0000      	13369    	54.04033
750.0000      	13333.3    	54.80064
752.0000      	13297.9    	55.30869
754.0000      	13262.6    	55.97493
756.0000      	13227.5    	56.53485
758.0000      	13192.6    	56.81734
760.0000      	13157.9    	57.40049
762.0000      	13123.4    	57.82472
764.0000      	13089    	57.81708
766.0000      	13054.8    	57.69167
768.0000      	13020.8    	57.95506
770.0000      	12987    	58.20771
772.0000      	12953.4    	58.26725
774.0000      	12919.9    	58.35386
776.0000      	12886.6    	58.29604
778.0000      	12853.5    	58.27030
780.0000      	12820.5    	58.35083
782.0000      	12787.7    	58.25364
784.0000      	12755.1    	58.48626
786.0000      	12722.6    	58.58438
788.0000      	12690.4    	58.67706
790.0000      	12658.2    	58.41211
792.0000      	12626.3    	58.36495
794.0000      	12594.5    	58.18593
796.0000      	12562.8    	58.44437
798.0000      	12531.3    	58.82826
800.0000      	12500    	58.65282