File: data/Reflectance_measurements/Reflectance_2019_material/13/13_2 .txt
Unit Serial No : 240-IM0P2424-EU
Integration Time : 10 ms
Time Average: 10
Binning Average: 2
FFT Smoothing: 0%
Project Name : RPS900-R
Sample Name :  SM240-IMOP2424-EU
Measurement No : 1
Measurement Time : 06/03/2019   14:53:16

Wavelength(nm)	Wavenumber(1/cm)	Transmittance(%)
300.0000      	33333.3    	16.20990
302.0000      	33112.6    	15.03380
304.0000      	32894.7    	13.82339
306.0000      	32679.7    	14.10506
308.0000      	32467.5    	12.01713
310.0000      	32258.1    	11.97989
312.0000      	32051.3    	11.35681
314.0000      	31847.1    	11.04884
316.0000      	31645.6    	10.93650
318.0000      	31446.5    	9.68823
320.0000      	31250    	9.38550
322.0000      	31055.9    	9.88300
324.0000      	30864.2    	8.74229
326.0000      	30674.8    	8.58462
328.0000      	30487.8    	8.96456
330.0000      	30303    	8.79943
332.0000      	30120.5    	9.13844
334.0000      	29940.1    	8.96347
336.0000      	29761.9    	8.33443
338.0000      	29585.8    	9.08638
340.0000      	29411.8    	8.58781
342.0000      	29239.8    	9.01026
344.0000      	29069.8    	9.17776
346.0000      	28901.7    	9.48212
348.0000      	28735.6    	9.51391
350.0000      	28571.4    	9.79921
352.0000      	28409.1    	9.98807
354.0000      	28248.6    	10.60016
356.0000      	28089.9    	11.31708
358.0000      	27933    	11.70918
360.0000      	27777.8    	12.52146
362.0000      	27624.3    	12.85265
364.0000      	27472.5    	13.12643
366.0000      	27322.4    	13.75108
368.0000      	27173.9    	14.35846
370.0000      	27027    	15.13298
372.0000      	26881.7    	15.72427
374.0000      	26738    	16.16213
376.0000      	26595.7    	17.19778
378.0000      	26455    	18.14081
380.0000      	26315.8    	19.33628
382.0000      	26178    	20.13808
384.0000      	26041.7    	20.90998
386.0000      	25906.7    	21.88474
388.0000      	25773.2    	23.11404
390.0000      	25641    	24.27856
392.0000      	25510.2    	25.03974
394.0000      	25380.7    	25.98904
396.0000      	25252.5    	27.05663
398.0000      	25125.6    	28.80120
400.0000      	25000    	30.50081
402.0000      	24875.6    	31.76488
404.0000      	24752.5    	34.39293
406.0000      	24630.5    	36.94225
408.0000      	24509.8    	39.68901
410.0000      	24390.2    	42.28177
412.0000      	24271.8    	44.82397
414.0000      	24154.6    	47.73631
416.0000      	24038.5    	49.49237
418.0000      	23923.4    	50.98192
420.0000      	23809.5    	52.21507
422.0000      	23696.7    	52.91507
424.0000      	23584.9    	53.92533
426.0000      	23474.2    	54.85043
428.0000      	23364.5    	55.59876
430.0000      	23255.8    	56.32813
432.0000      	23148.1    	57.56916
434.0000      	23041.5    	58.20842
436.0000      	22935.8    	58.89606
438.0000      	22831.1    	59.43143
440.0000      	22727.3    	59.62182
442.0000      	22624.4    	59.48719
444.0000      	22522.5    	59.40545
446.0000      	22421.5    	59.14742
448.0000      	22321.4    	58.65556
450.0000      	22222.2    	57.89207
452.0000      	22123.9    	57.44899
454.0000      	22026.4    	57.54354
456.0000      	21929.8    	57.49403
458.0000      	21834.1    	57.47402
460.0000      	21739.1    	57.43278
462.0000      	21645    	57.55277
464.0000      	21551.7    	57.22025
466.0000      	21459.2    	57.33027
468.0000      	21367.5    	57.34558
470.0000      	21276.6    	57.63142
472.0000      	21186.4    	57.85249
474.0000      	21097    	58.37663
476.0000      	21008.4    	58.68721
478.0000      	20920.5    	58.74770
480.0000      	20833.3    	58.78888
482.0000      	20746.9    	58.87630
484.0000      	20661.2    	59.22889
486.0000      	20576.1    	59.46151
488.0000      	20491.8    	59.84809
490.0000      	20408.2    	59.77747
492.0000      	20325.2    	60.01296
494.0000      	20242.9    	60.35494
496.0000      	20161.3    	60.53625
498.0000      	20080.3    	60.76282
500.0000      	20000    	60.85682
502.0000      	19920.3    	60.68614
504.0000      	19841.3    	60.94111
506.0000      	19762.8    	60.68030
508.0000      	19685    	60.37175
510.0000      	19607.8    	60.00756
512.0000      	19531.2    	59.44983
514.0000      	19455.3    	59.01425
516.0000      	19379.8    	58.41018
518.0000      	19305    	57.56536
520.0000      	19230.8    	56.99237
522.0000      	19157.1    	56.15848
524.0000      	19084    	55.23986
526.0000      	19011.4    	54.61530
528.0000      	18939.4    	53.85351
530.0000      	18867.9    	53.45696
532.0000      	18797    	52.91640
534.0000      	18726.6    	52.72211
536.0000      	18656.7    	52.29746
538.0000      	18587.4    	52.01745
540.0000      	18518.5    	51.95703
542.0000      	18450.2    	51.87716
544.0000      	18382.4    	51.73819
546.0000      	18315    	51.70034
548.0000      	18248.2    	51.54291
550.0000      	18181.8    	51.19364
552.0000      	18115.9    	50.78580
554.0000      	18050.5    	50.25894
556.0000      	17985.6    	49.59057
558.0000      	17921.1    	49.03037
560.0000      	17857.1    	48.16545
562.0000      	17793.6    	47.45142
564.0000      	17730.5    	46.84031
566.0000      	17667.8    	46.22462
568.0000      	17605.6    	45.69946
570.0000      	17543.9    	45.44382
572.0000      	17482.5    	45.35769
574.0000      	17421.6    	45.65143
576.0000      	17361.1    	46.04151
578.0000      	17301    	46.93073
580.0000      	17241.4    	48.17299
582.0000      	17182.1    	49.15298
584.0000      	17123.3    	50.25016
586.0000      	17064.8    	51.51592
588.0000      	17006.8    	52.04749
590.0000      	16949.2    	52.78049
592.0000      	16891.9    	53.53918
594.0000      	16835    	53.79916
596.0000      	16778.5    	54.25792
598.0000      	16722.4    	54.58174
600.0000      	16666.7    	54.66114
602.0000      	16611.3    	54.80867
604.0000      	16556.3    	54.71763
606.0000      	16501.7    	54.73630
608.0000      	16447.4    	54.60027
610.0000      	16393.4    	54.57044
612.0000      	16339.9    	54.66264
614.0000      	16286.6    	54.60640
616.0000      	16233.8    	54.55362
618.0000      	16181.2    	54.44258
620.0000      	16129    	54.51356
622.0000      	16077.2    	54.36870
624.0000      	16025.6    	54.41281
626.0000      	15974.4    	54.38373
628.0000      	15923.6    	54.55476
630.0000      	15873    	54.63596
632.0000      	15822.8    	54.72418
634.0000      	15772.9    	54.87574
636.0000      	15723.3    	55.08894
638.0000      	15674    	55.28562
640.0000      	15625    	55.74020
642.0000      	15576.3    	55.97144
644.0000      	15528    	56.44815
646.0000      	15479.9    	57.03000
648.0000      	15432.1    	57.29414
650.0000      	15384.6    	57.77042
652.0000      	15337.4    	58.32618
654.0000      	15290.5    	58.48218
656.0000      	15243.9    	59.11782
658.0000      	15197.6    	59.36193
660.0000      	15151.5    	59.73262
662.0000      	15105.7    	60.06681
664.0000      	15060.2    	60.24608
666.0000      	15015    	60.38297
668.0000      	14970.1    	60.48919
670.0000      	14925.4    	60.49025
672.0000      	14881    	60.41742
674.0000      	14836.8    	60.29046
676.0000      	14792.9    	60.14829
678.0000      	14749.3    	60.17701
680.0000      	14705.9    	59.96032
682.0000      	14662.8    	59.77606
684.0000      	14619.9    	59.67658
686.0000      	14577.3    	59.31589
688.0000      	14534.9    	58.98396
690.0000      	14492.8    	58.83792
692.0000      	14450.9    	58.66854
694.0000      	14409.2    	58.89176
696.0000      	14367.8    	58.90801
698.0000      	14326.6    	58.65844
700.0000      	14285.7    	58.59316
702.0000      	14245    	58.33729
704.0000      	14204.5    	58.18262
706.0000      	14164.3    	58.00578
708.0000      	14124.3    	57.85725
710.0000      	14084.5    	57.76736
712.0000      	14044.9    	57.30475
714.0000      	14005.6    	57.27153
716.0000      	13966.5    	57.54189
718.0000      	13927.6    	57.62315
720.0000      	13888.9    	57.78878
722.0000      	13850.4    	58.15782
724.0000      	13812.2    	58.31313
726.0000      	13774.1    	58.50251
728.0000      	13736.3    	58.64875
730.0000      	13698.6    	58.96411
732.0000      	13661.2    	59.28845
734.0000      	13624    	59.83486
736.0000      	13587    	59.98037
738.0000      	13550.1    	60.63405
740.0000      	13513.5    	61.00346
742.0000      	13477.1    	61.41172
744.0000      	13440.9    	62.79647
746.0000      	13404.8    	63.03561
748.0000      	13369    	63.59668
750.0000      	13333.3    	64.39041
752.0000      	13297.9    	64.62194
754.0000      	13262.6    	65.43307
756.0000      	13227.5    	66.20007
758.0000      	13192.6    	66.41663
760.0000      	13157.9    	67.41383
762.0000      	13123.4    	67.80477
764.0000      	13089    	67.79278
766.0000      	13054.8    	67.95403
768.0000      	13020.8    	68.23237
770.0000      	12987    	68.22868
772.0000      	12953.4    	68.42813
774.0000      	12919.9    	68.37861
776.0000      	12886.6    	68.49539
778.0000      	12853.5    	68.51990
780.0000      	12820.5    	68.65103
782.0000      	12787.7    	68.47986
784.0000      	12755.1    	68.71365
786.0000      	12722.6    	68.95914
788.0000      	12690.4    	68.74416
790.0000      	12658.2    	69.24615
792.0000      	12626.3    	68.04194
794.0000      	12594.5    	68.32951
796.0000      	12562.8    	68.69436
798.0000      	12531.3    	68.51131
800.0000      	12500    	67.91245