File: data/Reflectance_measurements/Reflectance_2019_material/75/75_1.txt
Unit Serial No : 240-IM0P2424-EU
Integration Time : 10 ms
Time Average: 10
Binning Average: 2
FFT Smoothing: 0%
Project Name : RPS900-R
Sample Name :  SM240-IMOP2424-EU
Measurement No : 1
Measurement Time : 06/03/2019   16:45:30

Wavelength(nm)	Wavenumber(1/cm)	Transmittance(%)
300.0000      	33333.3    	8.14677
302.0000      	33112.6    	6.53233
304.0000      	32894.7    	7.14510
306.0000      	32679.7    	8.25968
308.0000      	32467.5    	6.99813
310.0000      	32258.1    	6.86098
312.0000      	32051.3    	7.73682
314.0000      	31847.1    	6.19001
316.0000      	31645.6    	6.39042
318.0000      	31446.5    	5.91381
320.0000      	31250    	5.89356
322.0000      	31055.9    	6.18051
324.0000      	30864.2    	5.98276
326.0000      	30674.8    	5.51873
328.0000      	30487.8    	5.06793
330.0000      	30303    	5.18002
332.0000      	30120.5    	5.75331
334.0000      	29940.1    	5.37398
336.0000      	29761.9    	4.93204
338.0000      	29585.8    	5.21133
340.0000      	29411.8    	5.50299
342.0000      	29239.8    	5.33346
344.0000      	29069.8    	5.57338
346.0000      	28901.7    	4.69702
348.0000      	28735.6    	4.74330
350.0000      	28571.4    	5.23048
352.0000      	28409.1    	4.84974
354.0000      	28248.6    	5.31142
356.0000      	28089.9    	5.20420
358.0000      	27933    	4.98494
360.0000      	27777.8    	5.33055
362.0000      	27624.3    	5.18072
364.0000      	27472.5    	5.23793
366.0000      	27322.4    	5.52164
368.0000      	27173.9    	5.45569
370.0000      	27027    	5.49487
372.0000      	26881.7    	5.37949
374.0000      	26738    	5.35588
376.0000      	26595.7    	5.49647
378.0000      	26455    	5.75040
380.0000      	26315.8    	5.94674
382.0000      	26178    	6.00960
384.0000      	26041.7    	6.10009
386.0000      	25906.7    	6.23990
388.0000      	25773.2    	6.55340
390.0000      	25641    	6.54514
392.0000      	25510.2    	6.87599
394.0000      	25380.7    	6.93604
396.0000      	25252.5    	7.02318
398.0000      	25125.6    	7.31022
400.0000      	25000    	7.68289
402.0000      	24875.6    	7.86456
404.0000      	24752.5    	8.05758
406.0000      	24630.5    	8.27280
408.0000      	24509.8    	8.32246
410.0000      	24390.2    	8.58730
412.0000      	24271.8    	8.79436
414.0000      	24154.6    	8.91397
416.0000      	24038.5    	9.01622
418.0000      	23923.4    	9.04954
420.0000      	23809.5    	9.17874
422.0000      	23696.7    	9.35239
424.0000      	23584.9    	9.30493
426.0000      	23474.2    	9.51699
428.0000      	23364.5    	9.57760
430.0000      	23255.8    	9.64554
432.0000      	23148.1    	9.90475
434.0000      	23041.5    	9.90624
436.0000      	22935.8    	9.97607
438.0000      	22831.1    	10.18335
440.0000      	22727.3    	10.21422
442.0000      	22624.4    	10.46096
444.0000      	22522.5    	10.61563
446.0000      	22421.5    	10.59871
448.0000      	22321.4    	10.72928
450.0000      	22222.2    	10.78181
452.0000      	22123.9    	10.76737
454.0000      	22026.4    	11.02024
456.0000      	21929.8    	11.11814
458.0000      	21834.1    	11.25443
460.0000      	21739.1    	11.47413
462.0000      	21645    	11.53901
464.0000      	21551.7    	11.67437
466.0000      	21459.2    	11.87679
468.0000      	21367.5    	12.03094
470.0000      	21276.6    	12.26610
472.0000      	21186.4    	12.53562
474.0000      	21097    	12.72429
476.0000      	21008.4    	13.00845
478.0000      	20920.5    	13.25604
480.0000      	20833.3    	13.57447
482.0000      	20746.9    	13.86806
484.0000      	20661.2    	14.17739
486.0000      	20576.1    	14.37768
488.0000      	20491.8    	14.66697
490.0000      	20408.2    	14.95686
492.0000      	20325.2    	15.20099
494.0000      	20242.9    	15.41918
496.0000      	20161.3    	15.59800
498.0000      	20080.3    	15.77816
500.0000      	20000    	15.89814
502.0000      	19920.3    	15.96355
504.0000      	19841.3    	16.02621
506.0000      	19762.8    	15.99774
508.0000      	19685    	15.76384
510.0000      	19607.8    	15.52144
512.0000      	19531.2    	15.10244
514.0000      	19455.3    	14.79800
516.0000      	19379.8    	14.28391
518.0000      	19305    	13.72742
520.0000      	19230.8    	13.28150
522.0000      	19157.1    	12.69331
524.0000      	19084    	12.13033
526.0000      	19011.4    	11.74875
528.0000      	18939.4    	11.25153
530.0000      	18867.9    	10.87070
532.0000      	18797    	10.62255
534.0000      	18726.6    	10.44958
536.0000      	18656.7    	10.27030
538.0000      	18587.4    	10.11806
540.0000      	18518.5    	10.04984
542.0000      	18450.2    	10.01804
544.0000      	18382.4    	9.96622
546.0000      	18315    	9.89483
548.0000      	18248.2    	9.81540
550.0000      	18181.8    	9.71611
552.0000      	18115.9    	9.56803
554.0000      	18050.5    	9.35755
556.0000      	17985.6    	9.00702
558.0000      	17921.1    	8.80768
560.0000      	17857.1    	8.41673
562.0000      	17793.6    	8.16346
564.0000      	17730.5    	8.02604
566.0000      	17667.8    	7.81009
568.0000      	17605.6    	7.74026
570.0000      	17543.9    	7.72517
572.0000      	17482.5    	7.72245
574.0000      	17421.6    	7.84157
576.0000      	17361.1    	7.99926
578.0000      	17301    	8.30575
580.0000      	17241.4    	8.72100
582.0000      	17182.1    	9.10184
584.0000      	17123.3    	9.50168
586.0000      	17064.8    	10.09097
588.0000      	17006.8    	10.42922
590.0000      	16949.2    	10.84602
592.0000      	16891.9    	11.23694
594.0000      	16835    	11.44578
596.0000      	16778.5    	11.70264
598.0000      	16722.4    	11.81516
600.0000      	16666.7    	11.91207
602.0000      	16611.3    	11.96407
604.0000      	16556.3    	11.99772
606.0000      	16501.7    	11.98545
608.0000      	16447.4    	12.05301
610.0000      	16393.4    	12.09838
612.0000      	16339.9    	12.08782
614.0000      	16286.6    	12.07232
616.0000      	16233.8    	12.07136
618.0000      	16181.2    	12.09475
620.0000      	16129    	12.15707
622.0000      	16077.2    	12.13543
624.0000      	16025.6    	12.14156
626.0000      	15974.4    	12.17961
628.0000      	15923.6    	12.23549
630.0000      	15873    	12.27223
632.0000      	15822.8    	12.33935
634.0000      	15772.9    	12.34884
636.0000      	15723.3    	12.38771
638.0000      	15674    	12.49787
640.0000      	15625    	12.64154
642.0000      	15576.3    	12.67139
644.0000      	15528    	12.87634
646.0000      	15479.9    	13.04826
648.0000      	15432.1    	13.18284
650.0000      	15384.6    	13.33308
652.0000      	15337.4    	13.44953
654.0000      	15290.5    	13.63726
656.0000      	15243.9    	13.91611
658.0000      	15197.6    	14.11255
660.0000      	15151.5    	14.21433
662.0000      	15105.7    	14.53395
664.0000      	15060.2    	14.59822
666.0000      	15015    	14.72503
668.0000      	14970.1    	14.94732
670.0000      	14925.4    	14.92513
672.0000      	14881    	14.87645
674.0000      	14836.8    	15.00085
676.0000      	14792.9    	14.93563
678.0000      	14749.3    	14.81788
680.0000      	14705.9    	14.71624
682.0000      	14662.8    	14.64961
684.0000      	14619.9    	14.52323
686.0000      	14577.3    	14.43041
688.0000      	14534.9    	14.25932
690.0000      	14492.8    	14.16841
692.0000      	14450.9    	14.19019
694.0000      	14409.2    	14.08452
696.0000      	14367.8    	13.97189
698.0000      	14326.6    	13.95074
700.0000      	14285.7    	13.68616
702.0000      	14245    	13.49578
704.0000      	14204.5    	13.41005
706.0000      	14164.3    	13.18311
708.0000      	14124.3    	13.16910
710.0000      	14084.5    	13.08015
712.0000      	14044.9    	12.88933
714.0000      	14005.6    	12.91962
716.0000      	13966.5    	12.98569
718.0000      	13927.6    	12.97792
720.0000      	13888.9    	13.29676
722.0000      	13850.4    	13.51340
724.0000      	13812.2    	13.61996
726.0000      	13774.1    	13.83109
728.0000      	13736.3    	14.13352
730.0000      	13698.6    	14.54847
732.0000      	13661.2    	15.03220
734.0000      	13624    	15.44255
736.0000      	13587    	15.83205
738.0000      	13550.1    	16.39785
740.0000      	13513.5    	17.24529
742.0000      	13477.1    	17.64722
744.0000      	13440.9    	18.81803
746.0000      	13404.8    	20.03417
748.0000      	13369    	20.69964
750.0000      	13333.3    	22.28616
752.0000      	13297.9    	23.35714
754.0000      	13262.6    	24.54499
756.0000      	13227.5    	26.11488
758.0000      	13192.6    	27.67854
760.0000      	13157.9    	29.11842
762.0000      	13123.4    	30.54581
764.0000      	13089    	31.52527
766.0000      	13054.8    	32.27213
768.0000      	13020.8    	33.47922
770.0000      	12987    	34.15545
772.0000      	12953.4    	34.81578
774.0000      	12919.9    	35.33300
776.0000      	12886.6    	35.98271
778.0000      	12853.5    	36.26503
780.0000      	12820.5    	36.78378
782.0000      	12787.7    	37.36517
784.0000      	12755.1    	37.06672
786.0000      	12722.6    	37.44392
788.0000      	12690.4    	37.75839
790.0000      	12658.2    	37.12724
792.0000      	12626.3    	37.90568
794.0000      	12594.5    	38.35657
796.0000      	12562.8    	38.02478
798.0000      	12531.3    	38.02322
800.0000      	12500    	37.84887