File: data/Reflectance_measurements/Reflectance_2019_material/38/38_1.txt
Unit Serial No : 240-IM0P2424-EU
Integration Time : 10 ms
Time Average: 10
Binning Average: 2
FFT Smoothing: 0%
Project Name : RPS900-R
Sample Name :  SM240-IMOP2424-EU
Measurement No : 1
Measurement Time : 06/03/2019   15:02:26

Wavelength(nm)	Wavenumber(1/cm)	Transmittance(%)
300.0000      	33333.3    	12.85169
302.0000      	33112.6    	12.21607
304.0000      	32894.7    	11.13743
306.0000      	32679.7    	11.28305
308.0000      	32467.5    	12.14451
310.0000      	32258.1    	10.21844
312.0000      	32051.3    	10.47538
314.0000      	31847.1    	8.84585
316.0000      	31645.6    	9.45391
318.0000      	31446.5    	9.67667
320.0000      	31250    	8.48329
322.0000      	31055.9    	8.52490
324.0000      	30864.2    	8.19739
326.0000      	30674.8    	7.40960
328.0000      	30487.8    	7.71151
330.0000      	30303    	7.69036
332.0000      	30120.5    	7.46634
334.0000      	29940.1    	7.48272
336.0000      	29761.9    	7.51087
338.0000      	29585.8    	7.19486
340.0000      	29411.8    	7.63784
342.0000      	29239.8    	7.43471
344.0000      	29069.8    	7.08920
346.0000      	28901.7    	7.60517
348.0000      	28735.6    	7.22590
350.0000      	28571.4    	7.57442
352.0000      	28409.1    	7.59909
354.0000      	28248.6    	7.89627
356.0000      	28089.9    	8.17367
358.0000      	27933    	8.26658
360.0000      	27777.8    	8.63865
362.0000      	27624.3    	8.83956
364.0000      	27472.5    	8.80079
366.0000      	27322.4    	9.38181
368.0000      	27173.9    	9.98798
370.0000      	27027    	9.91427
372.0000      	26881.7    	10.07862
374.0000      	26738    	10.70871
376.0000      	26595.7    	10.88486
378.0000      	26455    	11.34561
380.0000      	26315.8    	12.04472
382.0000      	26178    	12.54644
384.0000      	26041.7    	13.01387
386.0000      	25906.7    	13.57909
388.0000      	25773.2    	14.04250
390.0000      	25641    	14.68713
392.0000      	25510.2    	15.19794
394.0000      	25380.7    	15.81001
396.0000      	25252.5    	16.61283
398.0000      	25125.6    	17.41778
400.0000      	25000    	18.44745
402.0000      	24875.6    	19.06029
404.0000      	24752.5    	20.01671
406.0000      	24630.5    	21.39161
408.0000      	24509.8    	22.31549
410.0000      	24390.2    	23.31956
412.0000      	24271.8    	24.25917
414.0000      	24154.6    	25.33414
416.0000      	24038.5    	26.29007
418.0000      	23923.4    	26.54760
420.0000      	23809.5    	26.90966
422.0000      	23696.7    	27.29281
424.0000      	23584.9    	28.04476
426.0000      	23474.2    	28.50074
428.0000      	23364.5    	28.85911
430.0000      	23255.8    	29.06213
432.0000      	23148.1    	29.53241
434.0000      	23041.5    	29.83160
436.0000      	22935.8    	30.25815
438.0000      	22831.1    	30.56267
440.0000      	22727.3    	31.17425
442.0000      	22624.4    	31.12467
444.0000      	22522.5    	31.32406
446.0000      	22421.5    	31.34279
448.0000      	22321.4    	31.27935
450.0000      	22222.2    	31.28052
452.0000      	22123.9    	31.48846
454.0000      	22026.4    	31.62013
456.0000      	21929.8    	31.81355
458.0000      	21834.1    	32.20510
460.0000      	21739.1    	32.44217
462.0000      	21645    	32.68367
464.0000      	21551.7    	32.95180
466.0000      	21459.2    	33.41381
468.0000      	21367.5    	33.73081
470.0000      	21276.6    	34.10486
472.0000      	21186.4    	34.65817
474.0000      	21097    	35.28946
476.0000      	21008.4    	35.69116
478.0000      	20920.5    	36.15273
480.0000      	20833.3    	36.77679
482.0000      	20746.9    	37.26471
484.0000      	20661.2    	37.87003
486.0000      	20576.1    	38.30252
488.0000      	20491.8    	38.85589
490.0000      	20408.2    	39.50477
492.0000      	20325.2    	39.95311
494.0000      	20242.9    	40.48164
496.0000      	20161.3    	40.89064
498.0000      	20080.3    	41.27393
500.0000      	20000    	41.44505
502.0000      	19920.3    	41.59200
504.0000      	19841.3    	41.65176
506.0000      	19762.8    	41.53366
508.0000      	19685    	41.24405
510.0000      	19607.8    	40.77950
512.0000      	19531.2    	40.04276
514.0000      	19455.3    	39.29724
516.0000      	19379.8    	38.31775
518.0000      	19305    	37.11469
520.0000      	19230.8    	36.28658
522.0000      	19157.1    	34.98123
524.0000      	19084    	33.78683
526.0000      	19011.4    	32.88133
528.0000      	18939.4    	31.88976
530.0000      	18867.9    	31.15467
532.0000      	18797    	30.48980
534.0000      	18726.6    	29.98965
536.0000      	18656.7    	29.61896
538.0000      	18587.4    	29.42904
540.0000      	18518.5    	29.25670
542.0000      	18450.2    	29.22525
544.0000      	18382.4    	29.19806
546.0000      	18315    	29.17019
548.0000      	18248.2    	29.14466
550.0000      	18181.8    	28.81543
552.0000      	18115.9    	28.53882
554.0000      	18050.5    	27.98125
556.0000      	17985.6    	27.20434
558.0000      	17921.1    	26.66163
560.0000      	17857.1    	25.87422
562.0000      	17793.6    	25.14698
564.0000      	17730.5    	24.60634
566.0000      	17667.8    	24.02204
568.0000      	17605.6    	23.68052
570.0000      	17543.9    	23.60843
572.0000      	17482.5    	23.69139
574.0000      	17421.6    	23.96581
576.0000      	17361.1    	24.44410
578.0000      	17301    	25.36382
580.0000      	17241.4    	26.47691
582.0000      	17182.1    	27.35779
584.0000      	17123.3    	28.50066
586.0000      	17064.8    	29.72132
588.0000      	17006.8    	30.55065
590.0000      	16949.2    	31.47040
592.0000      	16891.9    	32.28714
594.0000      	16835    	32.66607
596.0000      	16778.5    	33.10707
598.0000      	16722.4    	33.41055
600.0000      	16666.7    	33.47482
602.0000      	16611.3    	33.50225
604.0000      	16556.3    	33.46129
606.0000      	16501.7    	33.37655
608.0000      	16447.4    	33.28531
610.0000      	16393.4    	33.34858
612.0000      	16339.9    	33.40793
614.0000      	16286.6    	33.18629
616.0000      	16233.8    	33.17601
618.0000      	16181.2    	33.20440
620.0000      	16129    	33.33374
622.0000      	16077.2    	33.35986
624.0000      	16025.6    	33.35256
626.0000      	15974.4    	33.37222
628.0000      	15923.6    	33.46955
630.0000      	15873    	33.59828
632.0000      	15822.8    	33.64109
634.0000      	15772.9    	33.70402
636.0000      	15723.3    	33.87239
638.0000      	15674    	33.97150
640.0000      	15625    	34.24348
642.0000      	15576.3    	34.57309
644.0000      	15528    	34.92305
646.0000      	15479.9    	35.26999
648.0000      	15432.1    	35.54617
650.0000      	15384.6    	36.08224
652.0000      	15337.4    	36.51339
654.0000      	15290.5    	36.77916
656.0000      	15243.9    	37.37640
658.0000      	15197.6    	37.79823
660.0000      	15151.5    	38.20980
662.0000      	15105.7    	38.65750
664.0000      	15060.2    	38.94224
666.0000      	15015    	39.19779
668.0000      	14970.1    	39.27048
670.0000      	14925.4    	39.52176
672.0000      	14881    	39.50215
674.0000      	14836.8    	39.35077
676.0000      	14792.9    	39.30500
678.0000      	14749.3    	39.29283
680.0000      	14705.9    	39.03813
682.0000      	14662.8    	38.81843
684.0000      	14619.9    	38.58052
686.0000      	14577.3    	38.21806
688.0000      	14534.9    	38.02623
690.0000      	14492.8    	37.88149
692.0000      	14450.9    	37.53945
694.0000      	14409.2    	37.39686
696.0000      	14367.8    	37.18156
698.0000      	14326.6    	36.94169
700.0000      	14285.7    	36.67297
702.0000      	14245    	36.15954
704.0000      	14204.5    	35.83671
706.0000      	14164.3    	35.49211
708.0000      	14124.3    	35.26001
710.0000      	14084.5    	35.12393
712.0000      	14044.9    	35.07200
714.0000      	14005.6    	34.94914
716.0000      	13966.5    	35.09907
718.0000      	13927.6    	35.21885
720.0000      	13888.9    	35.57666
722.0000      	13850.4    	36.06686
724.0000      	13812.2    	36.49802
726.0000      	13774.1    	36.87479
728.0000      	13736.3    	37.21665
730.0000      	13698.6    	38.16539
732.0000      	13661.2    	38.85787
734.0000      	13624    	39.56632
736.0000      	13587    	40.68728
738.0000      	13550.1    	41.61745
740.0000      	13513.5    	42.84994
742.0000      	13477.1    	43.94985
744.0000      	13440.9    	45.83273
746.0000      	13404.8    	47.62609
748.0000      	13369    	49.06794
750.0000      	13333.3    	51.01463
752.0000      	13297.9    	52.59266
754.0000      	13262.6    	55.03501
756.0000      	13227.5    	56.57093
758.0000      	13192.6    	58.73391
760.0000      	13157.9    	60.54285
762.0000      	13123.4    	61.47008
764.0000      	13089    	62.98120
766.0000      	13054.8    	63.73152
768.0000      	13020.8    	64.30053
770.0000      	12987    	65.14327
772.0000      	12953.4    	65.83692
774.0000      	12919.9    	66.15427
776.0000      	12886.6    	66.28265
778.0000      	12853.5    	66.22912
780.0000      	12820.5    	66.70886
782.0000      	12787.7    	66.88406
784.0000      	12755.1    	67.28995
786.0000      	12722.6    	67.46866
788.0000      	12690.4    	67.70110
790.0000      	12658.2    	67.68181
792.0000      	12626.3    	66.76098
794.0000      	12594.5    	66.55564
796.0000      	12562.8    	67.17056
798.0000      	12531.3    	66.86693
800.0000      	12500    	66.97301