File: data/Reflectance_measurements/Reflectance_2019_material/38/38_2.txt
Unit Serial No : 240-IM0P2424-EU
Integration Time : 10 ms
Time Average: 10
Binning Average: 2
FFT Smoothing: 0%
Project Name : RPS900-R
Sample Name :  SM240-IMOP2424-EU
Measurement No : 1
Measurement Time : 06/03/2019   15:02:36

Wavelength(nm)	Wavenumber(1/cm)	Transmittance(%)
300.0000      	33333.3    	14.31635
302.0000      	33112.6    	12.45775
304.0000      	32894.7    	12.00663
306.0000      	32679.7    	12.03182
308.0000      	32467.5    	12.10614
310.0000      	32258.1    	10.63851
312.0000      	32051.3    	9.59653
314.0000      	31847.1    	8.76959
316.0000      	31645.6    	8.57021
318.0000      	31446.5    	9.20802
320.0000      	31250    	9.64453
322.0000      	31055.9    	8.58975
324.0000      	30864.2    	8.08380
326.0000      	30674.8    	8.65116
328.0000      	30487.8    	8.04468
330.0000      	30303    	7.62733
332.0000      	30120.5    	7.73534
334.0000      	29940.1    	7.23924
336.0000      	29761.9    	7.56120
338.0000      	29585.8    	7.58228
340.0000      	29411.8    	7.58844
342.0000      	29239.8    	7.62265
344.0000      	29069.8    	7.42265
346.0000      	28901.7    	7.20627
348.0000      	28735.6    	7.27562
350.0000      	28571.4    	7.55205
352.0000      	28409.1    	7.80735
354.0000      	28248.6    	8.35825
356.0000      	28089.9    	8.28418
358.0000      	27933    	8.63025
360.0000      	27777.8    	8.98658
362.0000      	27624.3    	9.18506
364.0000      	27472.5    	9.26267
366.0000      	27322.4    	9.51505
368.0000      	27173.9    	9.88372
370.0000      	27027    	10.04305
372.0000      	26881.7    	10.47701
374.0000      	26738    	10.69441
376.0000      	26595.7    	10.92753
378.0000      	26455    	11.70828
380.0000      	26315.8    	12.36619
382.0000      	26178    	12.56401
384.0000      	26041.7    	13.20782
386.0000      	25906.7    	13.61305
388.0000      	25773.2    	14.17624
390.0000      	25641    	14.99814
392.0000      	25510.2    	15.59608
394.0000      	25380.7    	16.36777
396.0000      	25252.5    	17.04160
398.0000      	25125.6    	17.75877
400.0000      	25000    	18.65971
402.0000      	24875.6    	19.36060
404.0000      	24752.5    	20.51464
406.0000      	24630.5    	21.66417
408.0000      	24509.8    	22.80073
410.0000      	24390.2    	23.72589
412.0000      	24271.8    	24.76376
414.0000      	24154.6    	25.78150
416.0000      	24038.5    	26.68665
418.0000      	23923.4    	26.89599
420.0000      	23809.5    	27.44365
422.0000      	23696.7    	27.82290
424.0000      	23584.9    	28.44530
426.0000      	23474.2    	28.91227
428.0000      	23364.5    	29.07848
430.0000      	23255.8    	29.39146
432.0000      	23148.1    	29.77005
434.0000      	23041.5    	30.35481
436.0000      	22935.8    	30.64130
438.0000      	22831.1    	30.78940
440.0000      	22727.3    	31.24525
442.0000      	22624.4    	31.58528
444.0000      	22522.5    	31.53465
446.0000      	22421.5    	31.69876
448.0000      	22321.4    	31.75677
450.0000      	22222.2    	31.59302
452.0000      	22123.9    	31.75782
454.0000      	22026.4    	32.15868
456.0000      	21929.8    	32.43446
458.0000      	21834.1    	32.60443
460.0000      	21739.1    	32.94825
462.0000      	21645    	33.32213
464.0000      	21551.7    	33.50728
466.0000      	21459.2    	33.97602
468.0000      	21367.5    	34.20482
470.0000      	21276.6    	34.54645
472.0000      	21186.4    	35.15877
474.0000      	21097    	35.72259
476.0000      	21008.4    	36.42220
478.0000      	20920.5    	36.75305
480.0000      	20833.3    	37.30332
482.0000      	20746.9    	37.86047
484.0000      	20661.2    	38.39311
486.0000      	20576.1    	38.79604
488.0000      	20491.8    	39.38812
490.0000      	20408.2    	40.05414
492.0000      	20325.2    	40.58334
494.0000      	20242.9    	41.17239
496.0000      	20161.3    	41.46216
498.0000      	20080.3    	41.75880
500.0000      	20000    	42.10367
502.0000      	19920.3    	42.21041
504.0000      	19841.3    	42.28904
506.0000      	19762.8    	42.17135
508.0000      	19685    	41.86749
510.0000      	19607.8    	41.26638
512.0000      	19531.2    	40.56819
514.0000      	19455.3    	39.91232
516.0000      	19379.8    	38.91050
518.0000      	19305    	37.67990
520.0000      	19230.8    	36.65694
522.0000      	19157.1    	35.48846
524.0000      	19084    	34.33950
526.0000      	19011.4    	33.46601
528.0000      	18939.4    	32.49456
530.0000      	18867.9    	31.67397
532.0000      	18797    	30.93925
534.0000      	18726.6    	30.48069
536.0000      	18656.7    	30.02096
538.0000      	18587.4    	29.72652
540.0000      	18518.5    	29.78016
542.0000      	18450.2    	29.64234
544.0000      	18382.4    	29.69017
546.0000      	18315    	29.65139
548.0000      	18248.2    	29.55383
550.0000      	18181.8    	29.26352
552.0000      	18115.9    	28.90026
554.0000      	18050.5    	28.31193
556.0000      	17985.6    	27.65520
558.0000      	17921.1    	27.04448
560.0000      	17857.1    	26.18763
562.0000      	17793.6    	25.52816
564.0000      	17730.5    	25.05999
566.0000      	17667.8    	24.39968
568.0000      	17605.6    	24.07202
570.0000      	17543.9    	23.96477
572.0000      	17482.5    	24.05840
574.0000      	17421.6    	24.49389
576.0000      	17361.1    	25.05420
578.0000      	17301    	25.84470
580.0000      	17241.4    	26.82296
582.0000      	17182.1    	27.83566
584.0000      	17123.3    	29.01811
586.0000      	17064.8    	30.19031
588.0000      	17006.8    	30.91158
590.0000      	16949.2    	31.83551
592.0000      	16891.9    	32.77317
594.0000      	16835    	33.14990
596.0000      	16778.5    	33.59056
598.0000      	16722.4    	33.85434
600.0000      	16666.7    	33.85804
602.0000      	16611.3    	33.99470
604.0000      	16556.3    	33.98505
606.0000      	16501.7    	33.88702
608.0000      	16447.4    	33.78852
610.0000      	16393.4    	33.83819
612.0000      	16339.9    	33.92920
614.0000      	16286.6    	33.79629
616.0000      	16233.8    	33.76789
618.0000      	16181.2    	33.77750
620.0000      	16129    	33.82707
622.0000      	16077.2    	33.70010
624.0000      	16025.6    	33.78606
626.0000      	15974.4    	33.93430
628.0000      	15923.6    	33.91937
630.0000      	15873    	33.98891
632.0000      	15822.8    	34.11144
634.0000      	15772.9    	34.23561
636.0000      	15723.3    	34.36479
638.0000      	15674    	34.50630
640.0000      	15625    	34.80029
642.0000      	15576.3    	34.98480
644.0000      	15528    	35.43106
646.0000      	15479.9    	35.81483
648.0000      	15432.1    	36.08149
650.0000      	15384.6    	36.56599
652.0000      	15337.4    	36.83650
654.0000      	15290.5    	37.28313
656.0000      	15243.9    	38.11832
658.0000      	15197.6    	38.27990
660.0000      	15151.5    	38.73066
662.0000      	15105.7    	39.17684
664.0000      	15060.2    	39.42249
666.0000      	15015    	39.80056
668.0000      	14970.1    	39.93502
670.0000      	14925.4    	39.94023
672.0000      	14881    	39.90471
674.0000      	14836.8    	39.93473
676.0000      	14792.9    	39.82198
678.0000      	14749.3    	39.80772
680.0000      	14705.9    	39.54611
682.0000      	14662.8    	39.38484
684.0000      	14619.9    	39.16461
686.0000      	14577.3    	38.74163
688.0000      	14534.9    	38.46989
690.0000      	14492.8    	38.45174
692.0000      	14450.9    	38.09077
694.0000      	14409.2    	37.88306
696.0000      	14367.8    	37.64709
698.0000      	14326.6    	37.35286
700.0000      	14285.7    	37.00021
702.0000      	14245    	36.81942
704.0000      	14204.5    	36.30949
706.0000      	14164.3    	35.98901
708.0000      	14124.3    	35.88061
710.0000      	14084.5    	35.74185
712.0000      	14044.9    	35.40410
714.0000      	14005.6    	35.28327
716.0000      	13966.5    	35.59334
718.0000      	13927.6    	35.90956
720.0000      	13888.9    	36.29145
722.0000      	13850.4    	36.51659
724.0000      	13812.2    	37.15095
726.0000      	13774.1    	37.73235
728.0000      	13736.3    	38.23857
730.0000      	13698.6    	38.99750
732.0000      	13661.2    	39.38768
734.0000      	13624    	40.36581
736.0000      	13587    	41.40269
738.0000      	13550.1    	42.31768
740.0000      	13513.5    	43.56771
742.0000      	13477.1    	44.52193
744.0000      	13440.9    	46.39493
746.0000      	13404.8    	48.13253
748.0000      	13369    	49.41594
750.0000      	13333.3    	51.58513
752.0000      	13297.9    	53.37730
754.0000      	13262.6    	55.51400
756.0000      	13227.5    	57.16860
758.0000      	13192.6    	58.81371
760.0000      	13157.9    	60.96101
762.0000      	13123.4    	62.41124
764.0000      	13089    	63.86174
766.0000      	13054.8    	64.75918
768.0000      	13020.8    	65.49107
770.0000      	12987    	66.13956
772.0000      	12953.4    	66.94200
774.0000      	12919.9    	67.22256
776.0000      	12886.6    	67.50025
778.0000      	12853.5    	67.47777
780.0000      	12820.5    	67.28768
782.0000      	12787.7    	67.65762
784.0000      	12755.1    	68.28820
786.0000      	12722.6    	68.25862
788.0000      	12690.4    	68.13670
790.0000      	12658.2    	68.70156
792.0000      	12626.3    	68.01215
794.0000      	12594.5    	68.18796
796.0000      	12562.8    	68.38786
798.0000      	12531.3    	68.53854
800.0000      	12500    	68.14258