File: data/Reflectance_measurements/Reflectance_2019_material/50/50_2 .txt
Unit Serial No : 240-IM0P2424-EU
Integration Time : 10 ms
Time Average: 10
Binning Average: 2
FFT Smoothing: 0%
Project Name : RPS900-R
Sample Name :  SM240-IMOP2424-EU
Measurement No : 1
Measurement Time : 06/03/2019   14:43:37

Wavelength(nm)	Wavenumber(1/cm)	Transmittance(%)
300.0000      	33333.3    	12.62223
302.0000      	33112.6    	10.16859
304.0000      	32894.7    	11.58387
306.0000      	32679.7    	11.35626
308.0000      	32467.5    	10.35499
310.0000      	32258.1    	10.12730
312.0000      	32051.3    	9.68287
314.0000      	31847.1    	9.96308
316.0000      	31645.6    	9.13758
318.0000      	31446.5    	8.53132
320.0000      	31250    	8.73051
322.0000      	31055.9    	8.28561
324.0000      	30864.2    	7.92921
326.0000      	30674.8    	7.39418
328.0000      	30487.8    	7.14026
330.0000      	30303    	7.34481
332.0000      	30120.5    	7.10053
334.0000      	29940.1    	7.42235
336.0000      	29761.9    	7.11135
338.0000      	29585.8    	7.00895
340.0000      	29411.8    	7.10408
342.0000      	29239.8    	6.92830
344.0000      	29069.8    	6.95582
346.0000      	28901.7    	6.84426
348.0000      	28735.6    	6.92759
350.0000      	28571.4    	7.47487
352.0000      	28409.1    	6.85280
354.0000      	28248.6    	7.40644
356.0000      	28089.9    	7.48687
358.0000      	27933    	7.45577
360.0000      	27777.8    	7.84942
362.0000      	27624.3    	8.18721
364.0000      	27472.5    	8.03517
366.0000      	27322.4    	8.06925
368.0000      	27173.9    	8.21996
370.0000      	27027    	8.30379
372.0000      	26881.7    	8.69241
374.0000      	26738    	8.66361
376.0000      	26595.7    	8.90770
378.0000      	26455    	9.50525
380.0000      	26315.8    	9.90427
382.0000      	26178    	10.16180
384.0000      	26041.7    	10.49628
386.0000      	25906.7    	10.86469
388.0000      	25773.2    	11.27956
390.0000      	25641    	11.94367
392.0000      	25510.2    	12.21131
394.0000      	25380.7    	12.63676
396.0000      	25252.5    	13.10272
398.0000      	25125.6    	13.85669
400.0000      	25000    	14.65378
402.0000      	24875.6    	15.18186
404.0000      	24752.5    	15.71239
406.0000      	24630.5    	16.57648
408.0000      	24509.8    	17.35617
410.0000      	24390.2    	17.97482
412.0000      	24271.8    	18.50882
414.0000      	24154.6    	19.10660
416.0000      	24038.5    	19.54872
418.0000      	23923.4    	20.14574
420.0000      	23809.5    	20.30035
422.0000      	23696.7    	20.52671
424.0000      	23584.9    	20.94398
426.0000      	23474.2    	21.25633
428.0000      	23364.5    	21.49625
430.0000      	23255.8    	21.61527
432.0000      	23148.1    	22.07051
434.0000      	23041.5    	22.47584
436.0000      	22935.8    	22.71447
438.0000      	22831.1    	22.90641
440.0000      	22727.3    	23.11516
442.0000      	22624.4    	23.21593
444.0000      	22522.5    	23.52061
446.0000      	22421.5    	23.35543
448.0000      	22321.4    	23.34382
450.0000      	22222.2    	23.53603
452.0000      	22123.9    	23.61731
454.0000      	22026.4    	23.84819
456.0000      	21929.8    	24.10908
458.0000      	21834.1    	24.29732
460.0000      	21739.1    	24.69920
462.0000      	21645    	24.89882
464.0000      	21551.7    	25.05906
466.0000      	21459.2    	25.48877
468.0000      	21367.5    	25.61955
470.0000      	21276.6    	25.93683
472.0000      	21186.4    	26.37574
474.0000      	21097    	26.81161
476.0000      	21008.4    	27.28923
478.0000      	20920.5    	27.70427
480.0000      	20833.3    	28.17867
482.0000      	20746.9    	28.72553
484.0000      	20661.2    	29.10693
486.0000      	20576.1    	29.49058
488.0000      	20491.8    	30.11454
490.0000      	20408.2    	30.62570
492.0000      	20325.2    	31.04633
494.0000      	20242.9    	31.52838
496.0000      	20161.3    	31.91871
498.0000      	20080.3    	32.31911
500.0000      	20000    	32.63641
502.0000      	19920.3    	32.69436
504.0000      	19841.3    	32.72772
506.0000      	19762.8    	32.64101
508.0000      	19685    	32.31381
510.0000      	19607.8    	31.85784
512.0000      	19531.2    	31.19622
514.0000      	19455.3    	30.48076
516.0000      	19379.8    	29.44222
518.0000      	19305    	28.33861
520.0000      	19230.8    	27.46984
522.0000      	19157.1    	26.26948
524.0000      	19084    	25.16405
526.0000      	19011.4    	24.30823
528.0000      	18939.4    	23.45029
530.0000      	18867.9    	22.62560
532.0000      	18797    	22.01711
534.0000      	18726.6    	21.66424
536.0000      	18656.7    	21.34509
538.0000      	18587.4    	21.10927
540.0000      	18518.5    	21.05322
542.0000      	18450.2    	20.97797
544.0000      	18382.4    	20.89279
546.0000      	18315    	20.94116
548.0000      	18248.2    	20.95141
550.0000      	18181.8    	20.70325
552.0000      	18115.9    	20.45678
554.0000      	18050.5    	19.93621
556.0000      	17985.6    	19.22235
558.0000      	17921.1    	18.77049
560.0000      	17857.1    	18.14563
562.0000      	17793.6    	17.47858
564.0000      	17730.5    	17.06181
566.0000      	17667.8    	16.68628
568.0000      	17605.6    	16.36178
570.0000      	17543.9    	16.36209
572.0000      	17482.5    	16.43012
574.0000      	17421.6    	16.79738
576.0000      	17361.1    	17.14608
578.0000      	17301    	17.84815
580.0000      	17241.4    	18.74421
582.0000      	17182.1    	19.56762
584.0000      	17123.3    	20.60433
586.0000      	17064.8    	21.68124
588.0000      	17006.8    	22.34574
590.0000      	16949.2    	23.29600
592.0000      	16891.9    	24.01673
594.0000      	16835    	24.39565
596.0000      	16778.5    	24.73204
598.0000      	16722.4    	25.08540
600.0000      	16666.7    	25.07580
602.0000      	16611.3    	25.17913
604.0000      	16556.3    	25.09897
606.0000      	16501.7    	24.97246
608.0000      	16447.4    	24.95418
610.0000      	16393.4    	24.98722
612.0000      	16339.9    	25.00813
614.0000      	16286.6    	25.01472
616.0000      	16233.8    	25.03964
618.0000      	16181.2    	25.01246
620.0000      	16129    	25.04083
622.0000      	16077.2    	25.01571
624.0000      	16025.6    	24.93458
626.0000      	15974.4    	25.00486
628.0000      	15923.6    	25.05874
630.0000      	15873    	25.11520
632.0000      	15822.8    	25.27151
634.0000      	15772.9    	25.36960
636.0000      	15723.3    	25.56632
638.0000      	15674    	25.63457
640.0000      	15625    	25.75299
642.0000      	15576.3    	25.96643
644.0000      	15528    	26.30451
646.0000      	15479.9    	26.68789
648.0000      	15432.1    	26.90444
650.0000      	15384.6    	27.36992
652.0000      	15337.4    	27.81427
654.0000      	15290.5    	28.09660
656.0000      	15243.9    	28.62220
658.0000      	15197.6    	29.00270
660.0000      	15151.5    	29.42441
662.0000      	15105.7    	29.89718
664.0000      	15060.2    	30.17433
666.0000      	15015    	30.53488
668.0000      	14970.1    	30.65633
670.0000      	14925.4    	30.89221
672.0000      	14881    	30.76623
674.0000      	14836.8    	30.63709
676.0000      	14792.9    	30.53130
678.0000      	14749.3    	30.46525
680.0000      	14705.9    	30.15276
682.0000      	14662.8    	30.10656
684.0000      	14619.9    	29.95096
686.0000      	14577.3    	29.71159
688.0000      	14534.9    	29.53028
690.0000      	14492.8    	29.19803
692.0000      	14450.9    	29.02579
694.0000      	14409.2    	28.85316
696.0000      	14367.8    	28.59904
698.0000      	14326.6    	28.28434
700.0000      	14285.7    	28.00662
702.0000      	14245    	27.70240
704.0000      	14204.5    	27.46382
706.0000      	14164.3    	27.00472
708.0000      	14124.3    	26.90013
710.0000      	14084.5    	26.67023
712.0000      	14044.9    	26.38306
714.0000      	14005.6    	26.34476
716.0000      	13966.5    	26.56151
718.0000      	13927.6    	26.62496
720.0000      	13888.9    	26.99561
722.0000      	13850.4    	27.56416
724.0000      	13812.2    	27.99353
726.0000      	13774.1    	28.66123
728.0000      	13736.3    	28.99237
730.0000      	13698.6    	29.52946
732.0000      	13661.2    	30.21961
734.0000      	13624    	31.32608
736.0000      	13587    	32.33528
738.0000      	13550.1    	33.40450
740.0000      	13513.5    	34.67400
742.0000      	13477.1    	35.75387
744.0000      	13440.9    	37.74247
746.0000      	13404.8    	39.76045
748.0000      	13369    	41.48595
750.0000      	13333.3    	43.87263
752.0000      	13297.9    	45.61595
754.0000      	13262.6    	48.34116
756.0000      	13227.5    	50.45585
758.0000      	13192.6    	52.67023
760.0000      	13157.9    	55.51237
762.0000      	13123.4    	57.36214
764.0000      	13089    	59.33191
766.0000      	13054.8    	60.36113
768.0000      	13020.8    	61.49226
770.0000      	12987    	62.48101
772.0000      	12953.4    	63.44430
774.0000      	12919.9    	63.79361
776.0000      	12886.6    	64.13766
778.0000      	12853.5    	64.57249
780.0000      	12820.5    	65.09267
782.0000      	12787.7    	65.20252
784.0000      	12755.1    	65.33813
786.0000      	12722.6    	65.91166
788.0000      	12690.4    	65.58333
790.0000      	12658.2    	65.89825
792.0000      	12626.3    	66.08376
794.0000      	12594.5    	66.14925
796.0000      	12562.8    	66.02884
798.0000      	12531.3    	66.07023
800.0000      	12500    	66.23166