File: data/Reflectance_measurements/Reflectance_2019_material/6_white/6_w_1.txt
Unit Serial No : 240-IM0P2424-EU
Integration Time : 10 ms
Time Average: 10
Binning Average: 2
FFT Smoothing: 0%
Project Name : RPS900-R
Sample Name :  SM240-IMOP2424-EU
Measurement No : 1
Measurement Time : 06/03/2019   16:44:16

Wavelength(nm)	Wavenumber(1/cm)	Transmittance(%)
300.0000      	33333.3    	18.50093
302.0000      	33112.6    	15.72449
304.0000      	32894.7    	15.35461
306.0000      	32679.7    	15.77798
308.0000      	32467.5    	13.67617
310.0000      	32258.1    	13.25919
312.0000      	32051.3    	11.74988
314.0000      	31847.1    	11.54860
316.0000      	31645.6    	11.99389
318.0000      	31446.5    	11.72455
320.0000      	31250    	10.56073
322.0000      	31055.9    	10.67565
324.0000      	30864.2    	10.42378
326.0000      	30674.8    	9.82499
328.0000      	30487.8    	9.83184
330.0000      	30303    	9.86566
332.0000      	30120.5    	10.05399
334.0000      	29940.1    	9.72567
336.0000      	29761.9    	9.40738
338.0000      	29585.8    	9.97245
340.0000      	29411.8    	9.78034
342.0000      	29239.8    	10.11132
344.0000      	29069.8    	10.53911
346.0000      	28901.7    	10.20019
348.0000      	28735.6    	10.53692
350.0000      	28571.4    	10.94330
352.0000      	28409.1    	11.04532
354.0000      	28248.6    	11.53010
356.0000      	28089.9    	12.26535
358.0000      	27933    	13.08026
360.0000      	27777.8    	14.15041
362.0000      	27624.3    	14.55648
364.0000      	27472.5    	15.24524
366.0000      	27322.4    	16.29439
368.0000      	27173.9    	16.71685
370.0000      	27027    	17.98546
372.0000      	26881.7    	18.25114
374.0000      	26738    	18.72230
376.0000      	26595.7    	20.05882
378.0000      	26455    	21.36239
380.0000      	26315.8    	22.57050
382.0000      	26178    	23.67795
384.0000      	26041.7    	25.01100
386.0000      	25906.7    	26.05904
388.0000      	25773.2    	27.62587
390.0000      	25641    	28.84011
392.0000      	25510.2    	29.71045
394.0000      	25380.7    	31.23380
396.0000      	25252.5    	32.67722
398.0000      	25125.6    	34.51392
400.0000      	25000    	36.72325
402.0000      	24875.6    	38.46523
404.0000      	24752.5    	41.61457
406.0000      	24630.5    	44.97648
408.0000      	24509.8    	48.84061
410.0000      	24390.2    	52.91890
412.0000      	24271.8    	56.43534
414.0000      	24154.6    	59.92311
416.0000      	24038.5    	63.39718
418.0000      	23923.4    	65.70028
420.0000      	23809.5    	66.85790
422.0000      	23696.7    	68.08689
424.0000      	23584.9    	69.25282
426.0000      	23474.2    	70.11734
428.0000      	23364.5    	71.71626
430.0000      	23255.8    	72.66664
432.0000      	23148.1    	74.41770
434.0000      	23041.5    	75.84469
436.0000      	22935.8    	76.57874
438.0000      	22831.1    	76.97286
440.0000      	22727.3    	77.56586
442.0000      	22624.4    	77.70730
444.0000      	22522.5    	77.42003
446.0000      	22421.5    	76.92274
448.0000      	22321.4    	75.96189
450.0000      	22222.2    	74.68223
452.0000      	22123.9    	74.27689
454.0000      	22026.4    	74.18775
456.0000      	21929.8    	73.92088
458.0000      	21834.1    	73.66407
460.0000      	21739.1    	73.44070
462.0000      	21645    	73.33292
464.0000      	21551.7    	72.87115
466.0000      	21459.2    	72.87688
468.0000      	21367.5    	72.91381
470.0000      	21276.6    	73.03441
472.0000      	21186.4    	73.29037
474.0000      	21097    	73.44239
476.0000      	21008.4    	73.63417
478.0000      	20920.5    	73.65009
480.0000      	20833.3    	73.43233
482.0000      	20746.9    	73.25733
484.0000      	20661.2    	73.31191
486.0000      	20576.1    	73.16642
488.0000      	20491.8    	73.40722
490.0000      	20408.2    	73.43542
492.0000      	20325.2    	73.43356
494.0000      	20242.9    	73.70203
496.0000      	20161.3    	73.97752
498.0000      	20080.3    	73.89771
500.0000      	20000    	73.91289
502.0000      	19920.3    	73.83096
504.0000      	19841.3    	73.67384
506.0000      	19762.8    	73.67647
508.0000      	19685    	73.34418
510.0000      	19607.8    	72.96265
512.0000      	19531.2    	72.59402
514.0000      	19455.3    	72.09692
516.0000      	19379.8    	71.46799
518.0000      	19305    	70.74061
520.0000      	19230.8    	70.24189
522.0000      	19157.1    	69.51361
524.0000      	19084    	68.85117
526.0000      	19011.4    	68.52979
528.0000      	18939.4    	67.90991
530.0000      	18867.9    	67.37057
532.0000      	18797    	66.98634
534.0000      	18726.6    	66.77071
536.0000      	18656.7    	66.67150
538.0000      	18587.4    	66.38046
540.0000      	18518.5    	66.25364
542.0000      	18450.2    	66.08902
544.0000      	18382.4    	66.02589
546.0000      	18315    	65.81188
548.0000      	18248.2    	65.55978
550.0000      	18181.8    	65.25813
552.0000      	18115.9    	65.11143
554.0000      	18050.5    	64.47694
556.0000      	17985.6    	63.75243
558.0000      	17921.1    	63.13305
560.0000      	17857.1    	62.26062
562.0000      	17793.6    	61.38899
564.0000      	17730.5    	60.77499
566.0000      	17667.8    	60.08560
568.0000      	17605.6    	59.28581
570.0000      	17543.9    	58.94167
572.0000      	17482.5    	58.92211
574.0000      	17421.6    	59.20131
576.0000      	17361.1    	59.64218
578.0000      	17301    	60.55272
580.0000      	17241.4    	61.87194
582.0000      	17182.1    	62.99924
584.0000      	17123.3    	64.35201
586.0000      	17064.8    	65.55625
588.0000      	17006.8    	66.35873
590.0000      	16949.2    	67.02769
592.0000      	16891.9    	67.65405
594.0000      	16835    	67.97280
596.0000      	16778.5    	68.51163
598.0000      	16722.4    	68.80885
600.0000      	16666.7    	68.86181
602.0000      	16611.3    	68.88841
604.0000      	16556.3    	68.97612
606.0000      	16501.7    	69.15617
608.0000      	16447.4    	69.13685
610.0000      	16393.4    	69.20709
612.0000      	16339.9    	69.05556
614.0000      	16286.6    	68.99032
616.0000      	16233.8    	68.97505
618.0000      	16181.2    	68.93853
620.0000      	16129    	68.75319
622.0000      	16077.2    	68.77422
624.0000      	16025.6    	69.00291
626.0000      	15974.4    	69.06652
628.0000      	15923.6    	69.16981
630.0000      	15873    	69.46859
632.0000      	15822.8    	69.63809
634.0000      	15772.9    	70.00217
636.0000      	15723.3    	70.31396
638.0000      	15674    	70.89058
640.0000      	15625    	71.60773
642.0000      	15576.3    	72.11507
644.0000      	15528    	72.71033
646.0000      	15479.9    	73.66204
648.0000      	15432.1    	74.25323
650.0000      	15384.6    	75.01540
652.0000      	15337.4    	75.59758
654.0000      	15290.5    	76.17310
656.0000      	15243.9    	77.26819
658.0000      	15197.6    	77.84927
660.0000      	15151.5    	78.42381
662.0000      	15105.7    	79.09530
664.0000      	15060.2    	79.27226
666.0000      	15015    	79.54448
668.0000      	14970.1    	79.84512
670.0000      	14925.4    	80.03101
672.0000      	14881    	80.09302
674.0000      	14836.8    	80.25713
676.0000      	14792.9    	79.99891
678.0000      	14749.3    	79.58296
680.0000      	14705.9    	79.25541
682.0000      	14662.8    	79.05607
684.0000      	14619.9    	78.67752
686.0000      	14577.3    	78.54781
688.0000      	14534.9    	78.35872
690.0000      	14492.8    	77.89762
692.0000      	14450.9    	78.13953
694.0000      	14409.2    	78.43459
696.0000      	14367.8    	78.45904
698.0000      	14326.6    	78.58372
700.0000      	14285.7    	78.86423
702.0000      	14245    	78.69419
704.0000      	14204.5    	78.85448
706.0000      	14164.3    	78.96396
708.0000      	14124.3    	78.70942
710.0000      	14084.5    	78.75598
712.0000      	14044.9    	78.36053
714.0000      	14005.6    	78.28313
716.0000      	13966.5    	78.65909
718.0000      	13927.6    	78.68344
720.0000      	13888.9    	78.52736
722.0000      	13850.4    	78.99753
724.0000      	13812.2    	79.36869
726.0000      	13774.1    	79.49001
728.0000      	13736.3    	79.72633
730.0000      	13698.6    	79.43272
732.0000      	13661.2    	79.57478
734.0000      	13624    	80.05607
736.0000      	13587    	80.26704
738.0000      	13550.1    	80.73180
740.0000      	13513.5    	81.29610
742.0000      	13477.1    	81.16991
744.0000      	13440.9    	81.94201
746.0000      	13404.8    	82.21999
748.0000      	13369    	82.54011
750.0000      	13333.3    	83.50866
752.0000      	13297.9    	83.87394
754.0000      	13262.6    	84.00603
756.0000      	13227.5    	84.49989
758.0000      	13192.6    	85.17203
760.0000      	13157.9    	85.14342
762.0000      	13123.4    	85.52158
764.0000      	13089    	85.07238
766.0000      	13054.8    	84.83701
768.0000      	13020.8    	85.21423
770.0000      	12987    	85.88033
772.0000      	12953.4    	85.79198
774.0000      	12919.9    	85.80715
776.0000      	12886.6    	86.78050
778.0000      	12853.5    	86.74996
780.0000      	12820.5    	86.90395
782.0000      	12787.7    	86.43598
784.0000      	12755.1    	85.96332
786.0000      	12722.6    	86.32462
788.0000      	12690.4    	86.96751
790.0000      	12658.2    	86.13891
792.0000      	12626.3    	85.98312
794.0000      	12594.5    	86.40307
796.0000      	12562.8    	85.97002
798.0000      	12531.3    	86.39550
800.0000      	12500    	85.99688