File: data/Reflectance_measurements/Reflectance_2019_material/6_white/6_w_2.txt
Unit Serial No : 240-IM0P2424-EU
Integration Time : 10 ms
Time Average: 10
Binning Average: 2
FFT Smoothing: 0%
Project Name : RPS900-R
Sample Name :  SM240-IMOP2424-EU
Measurement No : 1
Measurement Time : 06/03/2019   16:44:30

Wavelength(nm)	Wavenumber(1/cm)	Transmittance(%)
300.0000      	33333.3    	17.82792
302.0000      	33112.6    	18.26891
304.0000      	32894.7    	16.46695
306.0000      	32679.7    	15.65518
308.0000      	32467.5    	13.96382
310.0000      	32258.1    	14.06584
312.0000      	32051.3    	12.66581
314.0000      	31847.1    	12.09445
316.0000      	31645.6    	12.15494
318.0000      	31446.5    	11.87235
320.0000      	31250    	10.27174
322.0000      	31055.9    	10.71655
324.0000      	30864.2    	11.20655
326.0000      	30674.8    	9.78398
328.0000      	30487.8    	9.70054
330.0000      	30303    	9.48040
332.0000      	30120.5    	9.86165
334.0000      	29940.1    	9.38269
336.0000      	29761.9    	9.34222
338.0000      	29585.8    	9.72380
340.0000      	29411.8    	9.88075
342.0000      	29239.8    	10.10046
344.0000      	29069.8    	10.03731
346.0000      	28901.7    	10.24023
348.0000      	28735.6    	10.30592
350.0000      	28571.4    	10.84072
352.0000      	28409.1    	11.40506
354.0000      	28248.6    	11.77577
356.0000      	28089.9    	12.45600
358.0000      	27933    	13.24522
360.0000      	27777.8    	13.93345
362.0000      	27624.3    	14.93828
364.0000      	27472.5    	15.42208
366.0000      	27322.4    	16.38793
368.0000      	27173.9    	16.98807
370.0000      	27027    	17.96984
372.0000      	26881.7    	18.28983
374.0000      	26738    	19.13696
376.0000      	26595.7    	20.05700
378.0000      	26455    	21.92768
380.0000      	26315.8    	23.02721
382.0000      	26178    	24.12502
384.0000      	26041.7    	25.35464
386.0000      	25906.7    	26.64398
388.0000      	25773.2    	27.94105
390.0000      	25641    	29.23419
392.0000      	25510.2    	30.23036
394.0000      	25380.7    	31.62360
396.0000      	25252.5    	33.07900
398.0000      	25125.6    	34.83020
400.0000      	25000    	37.07164
402.0000      	24875.6    	38.71554
404.0000      	24752.5    	41.79902
406.0000      	24630.5    	45.08807
408.0000      	24509.8    	48.87041
410.0000      	24390.2    	53.12143
412.0000      	24271.8    	56.46797
414.0000      	24154.6    	60.11506
416.0000      	24038.5    	63.15138
418.0000      	23923.4    	65.37540
420.0000      	23809.5    	66.60737
422.0000      	23696.7    	67.94859
424.0000      	23584.9    	69.23098
426.0000      	23474.2    	70.44122
428.0000      	23364.5    	71.48855
430.0000      	23255.8    	72.11474
432.0000      	23148.1    	73.93252
434.0000      	23041.5    	75.51093
436.0000      	22935.8    	76.29569
438.0000      	22831.1    	76.65302
440.0000      	22727.3    	77.45389
442.0000      	22624.4    	77.30264
444.0000      	22522.5    	77.17849
446.0000      	22421.5    	76.76501
448.0000      	22321.4    	75.47198
450.0000      	22222.2    	74.29100
452.0000      	22123.9    	74.12602
454.0000      	22026.4    	73.83563
456.0000      	21929.8    	73.49410
458.0000      	21834.1    	73.08846
460.0000      	21739.1    	73.02348
462.0000      	21645    	72.86028
464.0000      	21551.7    	72.65909
466.0000      	21459.2    	72.51489
468.0000      	21367.5    	72.49908
470.0000      	21276.6    	72.67413
472.0000      	21186.4    	73.12822
474.0000      	21097    	73.05907
476.0000      	21008.4    	73.31259
478.0000      	20920.5    	73.32883
480.0000      	20833.3    	73.18100
482.0000      	20746.9    	72.94448
484.0000      	20661.2    	73.08929
486.0000      	20576.1    	73.16429
488.0000      	20491.8    	73.20667
490.0000      	20408.2    	73.17000
492.0000      	20325.2    	73.12799
494.0000      	20242.9    	73.37935
496.0000      	20161.3    	73.49239
498.0000      	20080.3    	73.59840
500.0000      	20000    	73.64191
502.0000      	19920.3    	73.65469
504.0000      	19841.3    	73.51291
506.0000      	19762.8    	73.34758
508.0000      	19685    	73.05025
510.0000      	19607.8    	72.60163
512.0000      	19531.2    	72.21712
514.0000      	19455.3    	71.84328
516.0000      	19379.8    	71.27878
518.0000      	19305    	70.46046
520.0000      	19230.8    	70.01750
522.0000      	19157.1    	69.42785
524.0000      	19084    	68.67303
526.0000      	19011.4    	68.25511
528.0000      	18939.4    	67.54343
530.0000      	18867.9    	67.19621
532.0000      	18797    	66.89713
534.0000      	18726.6    	66.66595
536.0000      	18656.7    	66.36641
538.0000      	18587.4    	66.11095
540.0000      	18518.5    	66.11486
542.0000      	18450.2    	65.94331
544.0000      	18382.4    	65.77996
546.0000      	18315    	65.63564
548.0000      	18248.2    	65.31852
550.0000      	18181.8    	65.09203
552.0000      	18115.9    	64.76263
554.0000      	18050.5    	64.17745
556.0000      	17985.6    	63.56503
558.0000      	17921.1    	62.95967
560.0000      	17857.1    	62.04112
562.0000      	17793.6    	61.15841
564.0000      	17730.5    	60.47700
566.0000      	17667.8    	59.68051
568.0000      	17605.6    	59.14220
570.0000      	17543.9    	58.81617
572.0000      	17482.5    	58.65219
574.0000      	17421.6    	58.99812
576.0000      	17361.1    	59.49906
578.0000      	17301    	60.37574
580.0000      	17241.4    	61.72218
582.0000      	17182.1    	62.81741
584.0000      	17123.3    	64.13221
586.0000      	17064.8    	65.27139
588.0000      	17006.8    	65.99840
590.0000      	16949.2    	66.81537
592.0000      	16891.9    	67.50156
594.0000      	16835    	67.75578
596.0000      	16778.5    	68.25656
598.0000      	16722.4    	68.47718
600.0000      	16666.7    	68.73044
602.0000      	16611.3    	68.77362
604.0000      	16556.3    	68.77136
606.0000      	16501.7    	68.92581
608.0000      	16447.4    	68.79932
610.0000      	16393.4    	68.86137
612.0000      	16339.9    	68.81654
614.0000      	16286.6    	68.68452
616.0000      	16233.8    	68.66525
618.0000      	16181.2    	68.62408
620.0000      	16129    	68.49631
622.0000      	16077.2    	68.48534
624.0000      	16025.6    	68.71708
626.0000      	15974.4    	68.71531
628.0000      	15923.6    	68.86057
630.0000      	15873    	69.07207
632.0000      	15822.8    	69.35005
634.0000      	15772.9    	69.72733
636.0000      	15723.3    	70.12621
638.0000      	15674    	70.67653
640.0000      	15625    	71.30798
642.0000      	15576.3    	71.80003
644.0000      	15528    	72.34219
646.0000      	15479.9    	73.23283
648.0000      	15432.1    	73.94567
650.0000      	15384.6    	74.54749
652.0000      	15337.4    	75.41603
654.0000      	15290.5    	75.99673
656.0000      	15243.9    	76.91723
658.0000      	15197.6    	77.51787
660.0000      	15151.5    	78.07911
662.0000      	15105.7    	78.71076
664.0000      	15060.2    	78.94451
666.0000      	15015    	79.11044
668.0000      	14970.1    	79.49311
670.0000      	14925.4    	79.58481
672.0000      	14881    	79.59875
674.0000      	14836.8    	79.63350
676.0000      	14792.9    	79.68167
678.0000      	14749.3    	79.44239
680.0000      	14705.9    	79.04909
682.0000      	14662.8    	78.75680
684.0000      	14619.9    	78.55578
686.0000      	14577.3    	77.99567
688.0000      	14534.9    	77.83825
690.0000      	14492.8    	77.46346
692.0000      	14450.9    	77.90301
694.0000      	14409.2    	78.05388
696.0000      	14367.8    	78.00390
698.0000      	14326.6    	78.11508
700.0000      	14285.7    	78.48331
702.0000      	14245    	78.50730
704.0000      	14204.5    	78.55676
706.0000      	14164.3    	78.53172
708.0000      	14124.3    	78.50401
710.0000      	14084.5    	78.00073
712.0000      	14044.9    	78.13623
714.0000      	14005.6    	77.99468
716.0000      	13966.5    	77.94281
718.0000      	13927.6    	78.17020
720.0000      	13888.9    	78.34194
722.0000      	13850.4    	78.45059
724.0000      	13812.2    	78.88782
726.0000      	13774.1    	79.08541
728.0000      	13736.3    	79.31578
730.0000      	13698.6    	79.14719
732.0000      	13661.2    	79.38824
734.0000      	13624    	79.82188
736.0000      	13587    	79.69601
738.0000      	13550.1    	80.07011
740.0000      	13513.5    	80.63161
742.0000      	13477.1    	80.75932
744.0000      	13440.9    	81.40601
746.0000      	13404.8    	81.89217
748.0000      	13369    	82.25468
750.0000      	13333.3    	82.98964
752.0000      	13297.9    	83.23688
754.0000      	13262.6    	83.35447
756.0000      	13227.5    	84.04645
758.0000      	13192.6    	84.70226
760.0000      	13157.9    	84.93879
762.0000      	13123.4    	85.29597
764.0000      	13089    	84.41482
766.0000      	13054.8    	84.30585
768.0000      	13020.8    	84.67158
770.0000      	12987    	85.33873
772.0000      	12953.4    	85.74336
774.0000      	12919.9    	85.54719
776.0000      	12886.6    	86.33506
778.0000      	12853.5    	86.12445
780.0000      	12820.5    	86.65385
782.0000      	12787.7    	86.65063
784.0000      	12755.1    	85.89561
786.0000      	12722.6    	85.99180
788.0000      	12690.4    	86.56760
790.0000      	12658.2    	85.79878
792.0000      	12626.3    	85.19330
794.0000      	12594.5    	85.78267
796.0000      	12562.8    	85.85406
798.0000      	12531.3    	85.95260
800.0000      	12500    	85.90231