File: data/Reflectance_measurements/Reflectance_2019_material/87/87_2.txt
Unit Serial No : 240-IM0P2424-EU
Integration Time : 10 ms
Time Average: 10
Binning Average: 2
FFT Smoothing: 0%
Project Name : RPS900-R
Sample Name :  SM240-IMOP2424-EU
Measurement No : 1
Measurement Time : 06/03/2019   14:45:05

Wavelength(nm)	Wavenumber(1/cm)	Transmittance(%)
300.0000      	33333.3    	2.40178
302.0000      	33112.6    	2.52692
304.0000      	32894.7    	2.11925
306.0000      	32679.7    	1.75877
308.0000      	32467.5    	2.10568
310.0000      	32258.1    	2.06049
312.0000      	32051.3    	1.44715
314.0000      	31847.1    	2.76947
316.0000      	31645.6    	0.73736
318.0000      	31446.5    	1.61926
320.0000      	31250    	1.87336
322.0000      	31055.9    	0.80555
324.0000      	30864.2    	1.48096
326.0000      	30674.8    	1.37951
328.0000      	30487.8    	1.20744
330.0000      	30303    	1.34089
332.0000      	30120.5    	1.03106
334.0000      	29940.1    	1.19946
336.0000      	29761.9    	1.10732
338.0000      	29585.8    	1.08250
340.0000      	29411.8    	0.97382
342.0000      	29239.8    	1.31395
344.0000      	29069.8    	1.14922
346.0000      	28901.7    	1.17309
348.0000      	28735.6    	1.14257
350.0000      	28571.4    	0.94983
352.0000      	28409.1    	0.97538
354.0000      	28248.6    	1.13857
356.0000      	28089.9    	1.15831
358.0000      	27933    	0.82679
360.0000      	27777.8    	0.70770
362.0000      	27624.3    	1.17624
364.0000      	27472.5    	1.10499
366.0000      	27322.4    	0.98305
368.0000      	27173.9    	0.85866
370.0000      	27027    	0.87117
372.0000      	26881.7    	0.67303
374.0000      	26738    	0.80240
376.0000      	26595.7    	0.74363
378.0000      	26455    	0.66175
380.0000      	26315.8    	0.85221
382.0000      	26178    	0.68421
384.0000      	26041.7    	0.80107
386.0000      	25906.7    	0.79292
388.0000      	25773.2    	0.78201
390.0000      	25641    	0.97602
392.0000      	25510.2    	0.80932
394.0000      	25380.7    	0.83937
396.0000      	25252.5    	0.79694
398.0000      	25125.6    	0.64277
400.0000      	25000    	0.74292
402.0000      	24875.6    	0.86258
404.0000      	24752.5    	0.69884
406.0000      	24630.5    	0.70864
408.0000      	24509.8    	0.68353
410.0000      	24390.2    	0.77681
412.0000      	24271.8    	0.84833
414.0000      	24154.6    	0.80065
416.0000      	24038.5    	0.74158
418.0000      	23923.4    	0.80658
420.0000      	23809.5    	0.75217
422.0000      	23696.7    	0.63583
424.0000      	23584.9    	0.86932
426.0000      	23474.2    	0.74770
428.0000      	23364.5    	0.64678
430.0000      	23255.8    	0.80299
432.0000      	23148.1    	0.65703
434.0000      	23041.5    	0.72293
436.0000      	22935.8    	0.73029
438.0000      	22831.1    	0.70890
440.0000      	22727.3    	0.76594
442.0000      	22624.4    	0.67180
444.0000      	22522.5    	0.81881
446.0000      	22421.5    	0.78046
448.0000      	22321.4    	0.70784
450.0000      	22222.2    	0.67279
452.0000      	22123.9    	0.69261
454.0000      	22026.4    	0.66914
456.0000      	21929.8    	0.71067
458.0000      	21834.1    	0.69741
460.0000      	21739.1    	0.60798
462.0000      	21645    	0.67705
464.0000      	21551.7    	0.71734
466.0000      	21459.2    	0.69997
468.0000      	21367.5    	0.66856
470.0000      	21276.6    	0.73740
472.0000      	21186.4    	0.69223
474.0000      	21097    	0.71347
476.0000      	21008.4    	0.64246
478.0000      	20920.5    	0.64060
480.0000      	20833.3    	0.67554
482.0000      	20746.9    	0.62963
484.0000      	20661.2    	0.63952
486.0000      	20576.1    	0.65015
488.0000      	20491.8    	0.58215
490.0000      	20408.2    	0.62160
492.0000      	20325.2    	0.65007
494.0000      	20242.9    	0.64395
496.0000      	20161.3    	0.66348
498.0000      	20080.3    	0.62385
500.0000      	20000    	0.60567
502.0000      	19920.3    	0.65058
504.0000      	19841.3    	0.66686
506.0000      	19762.8    	0.63588
508.0000      	19685    	0.65208
510.0000      	19607.8    	0.62265
512.0000      	19531.2    	0.63169
514.0000      	19455.3    	0.64382
516.0000      	19379.8    	0.62888
518.0000      	19305    	0.62550
520.0000      	19230.8    	0.67475
522.0000      	19157.1    	0.65914
524.0000      	19084    	0.66437
526.0000      	19011.4    	0.65277
528.0000      	18939.4    	0.62025
530.0000      	18867.9    	0.66146
532.0000      	18797    	0.70880
534.0000      	18726.6    	0.66916
536.0000      	18656.7    	0.64267
538.0000      	18587.4    	0.63572
540.0000      	18518.5    	0.63450
542.0000      	18450.2    	0.66532
544.0000      	18382.4    	0.65928
546.0000      	18315    	0.64732
548.0000      	18248.2    	0.64496
550.0000      	18181.8    	0.67338
552.0000      	18115.9    	0.64311
554.0000      	18050.5    	0.68630
556.0000      	17985.6    	0.66918
558.0000      	17921.1    	0.67632
560.0000      	17857.1    	0.67366
562.0000      	17793.6    	0.63827
564.0000      	17730.5    	0.65145
566.0000      	17667.8    	0.67986
568.0000      	17605.6    	0.68396
570.0000      	17543.9    	0.70511
572.0000      	17482.5    	0.67299
574.0000      	17421.6    	0.65392
576.0000      	17361.1    	0.66229
578.0000      	17301    	0.66536
580.0000      	17241.4    	0.67900
582.0000      	17182.1    	0.69704
584.0000      	17123.3    	0.65729
586.0000      	17064.8    	0.67706
588.0000      	17006.8    	0.67934
590.0000      	16949.2    	0.68121
592.0000      	16891.9    	0.61350
594.0000      	16835    	0.65184
596.0000      	16778.5    	0.68410
598.0000      	16722.4    	0.70713
600.0000      	16666.7    	0.70756
602.0000      	16611.3    	0.61854
604.0000      	16556.3    	0.65301
606.0000      	16501.7    	0.71128
608.0000      	16447.4    	0.63147
610.0000      	16393.4    	0.64691
612.0000      	16339.9    	0.74215
614.0000      	16286.6    	0.72285
616.0000      	16233.8    	0.66394
618.0000      	16181.2    	0.69676
620.0000      	16129    	0.68685
622.0000      	16077.2    	0.69302
624.0000      	16025.6    	0.67167
626.0000      	15974.4    	0.65748
628.0000      	15923.6    	0.66146
630.0000      	15873    	0.67732
632.0000      	15822.8    	0.65496
634.0000      	15772.9    	0.66986
636.0000      	15723.3    	0.73329
638.0000      	15674    	0.69738
640.0000      	15625    	0.72481
642.0000      	15576.3    	0.71729
644.0000      	15528    	0.63793
646.0000      	15479.9    	0.72675
648.0000      	15432.1    	0.75427
650.0000      	15384.6    	0.65344
652.0000      	15337.4    	0.69958
654.0000      	15290.5    	0.74511
656.0000      	15243.9    	0.71094
658.0000      	15197.6    	0.76135
660.0000      	15151.5    	0.76861
662.0000      	15105.7    	0.75388
664.0000      	15060.2    	0.77526
666.0000      	15015    	0.75732
668.0000      	14970.1    	0.64348
670.0000      	14925.4    	0.78155
672.0000      	14881    	0.80125
674.0000      	14836.8    	0.71996
676.0000      	14792.9    	0.74819
678.0000      	14749.3    	0.76050
680.0000      	14705.9    	0.72996
682.0000      	14662.8    	0.76358
684.0000      	14619.9    	0.72963
686.0000      	14577.3    	0.76518
688.0000      	14534.9    	0.80143
690.0000      	14492.8    	0.68666
692.0000      	14450.9    	0.72306
694.0000      	14409.2    	0.77396
696.0000      	14367.8    	0.74214
698.0000      	14326.6    	0.73316
700.0000      	14285.7    	0.78421
702.0000      	14245    	0.85070
704.0000      	14204.5    	0.78632
706.0000      	14164.3    	0.84975
708.0000      	14124.3    	0.78209
710.0000      	14084.5    	0.82541
712.0000      	14044.9    	0.81134
714.0000      	14005.6    	0.67757
716.0000      	13966.5    	0.79854
718.0000      	13927.6    	0.90940
720.0000      	13888.9    	0.85508
722.0000      	13850.4    	0.98885
724.0000      	13812.2    	1.00570
726.0000      	13774.1    	0.84790
728.0000      	13736.3    	0.79298
730.0000      	13698.6    	0.94712
732.0000      	13661.2    	0.88229
734.0000      	13624    	0.80257
736.0000      	13587    	0.86961
738.0000      	13550.1    	0.96563
740.0000      	13513.5    	1.08077
742.0000      	13477.1    	1.20121
744.0000      	13440.9    	0.98617
746.0000      	13404.8    	0.90432
748.0000      	13369    	1.02751
750.0000      	13333.3    	0.96455
752.0000      	13297.9    	0.87253
754.0000      	13262.6    	1.02008
756.0000      	13227.5    	1.06565
758.0000      	13192.6    	1.03034
760.0000      	13157.9    	1.00442
762.0000      	13123.4    	1.00813
764.0000      	13089    	1.10905
766.0000      	13054.8    	1.06682
768.0000      	13020.8    	0.90160
770.0000      	12987    	0.98964
772.0000      	12953.4    	1.00927
774.0000      	12919.9    	0.87757
776.0000      	12886.6    	1.28063
778.0000      	12853.5    	0.99574
780.0000      	12820.5    	1.07254
782.0000      	12787.7    	1.35054
784.0000      	12755.1    	1.35058
786.0000      	12722.6    	1.07558
788.0000      	12690.4    	1.30374
790.0000      	12658.2    	1.28841
792.0000      	12626.3    	0.86563
794.0000      	12594.5    	1.03101
796.0000      	12562.8    	1.12386
798.0000      	12531.3    	1.20195
800.0000      	12500    	1.31448