File: data/Reflectance_measurements/Reflectance_2019_material/38_white/38_w_2.txt
Unit Serial No : 240-IM0P2424-EU
Integration Time : 10 ms
Time Average: 10
Binning Average: 2
FFT Smoothing: 0%
Project Name : RPS900-R
Sample Name :  SM240-IMOP2424-EU
Measurement No : 1
Measurement Time : 06/03/2019   15:03:33

Wavelength(nm)	Wavenumber(1/cm)	Transmittance(%)
300.0000      	33333.3    	12.31772
302.0000      	33112.6    	12.31431
304.0000      	32894.7    	10.92423
306.0000      	32679.7    	9.77554
308.0000      	32467.5    	10.56371
310.0000      	32258.1    	9.41674
312.0000      	32051.3    	10.39548
314.0000      	31847.1    	9.46438
316.0000      	31645.6    	8.03661
318.0000      	31446.5    	8.10050
320.0000      	31250    	7.68647
322.0000      	31055.9    	6.87636
324.0000      	30864.2    	7.22204
326.0000      	30674.8    	6.48289
328.0000      	30487.8    	6.43451
330.0000      	30303    	7.04418
332.0000      	30120.5    	6.32948
334.0000      	29940.1    	6.56388
336.0000      	29761.9    	6.78923
338.0000      	29585.8    	6.59454
340.0000      	29411.8    	6.67708
342.0000      	29239.8    	6.66616
344.0000      	29069.8    	6.41094
346.0000      	28901.7    	6.51275
348.0000      	28735.6    	6.74593
350.0000      	28571.4    	6.64971
352.0000      	28409.1    	6.84586
354.0000      	28248.6    	7.11033
356.0000      	28089.9    	7.40338
358.0000      	27933    	7.39450
360.0000      	27777.8    	7.53747
362.0000      	27624.3    	8.01576
364.0000      	27472.5    	8.01481
366.0000      	27322.4    	8.20146
368.0000      	27173.9    	8.43454
370.0000      	27027    	8.49742
372.0000      	26881.7    	8.69422
374.0000      	26738    	9.20107
376.0000      	26595.7    	9.18797
378.0000      	26455    	9.62560
380.0000      	26315.8    	10.06170
382.0000      	26178    	10.20960
384.0000      	26041.7    	10.69599
386.0000      	25906.7    	11.34714
388.0000      	25773.2    	11.55084
390.0000      	25641    	12.07423
392.0000      	25510.2    	12.45838
394.0000      	25380.7    	13.04550
396.0000      	25252.5    	13.59925
398.0000      	25125.6    	13.97911
400.0000      	25000    	14.87687
402.0000      	24875.6    	15.63675
404.0000      	24752.5    	16.21942
406.0000      	24630.5    	17.32521
408.0000      	24509.8    	17.90943
410.0000      	24390.2    	18.62908
412.0000      	24271.8    	19.52410
414.0000      	24154.6    	20.33970
416.0000      	24038.5    	20.80037
418.0000      	23923.4    	21.16960
420.0000      	23809.5    	21.38464
422.0000      	23696.7    	21.54903
424.0000      	23584.9    	22.06297
426.0000      	23474.2    	22.45393
428.0000      	23364.5    	22.77560
430.0000      	23255.8    	22.91591
432.0000      	23148.1    	23.13645
434.0000      	23041.5    	23.60077
436.0000      	22935.8    	24.13100
438.0000      	22831.1    	24.32722
440.0000      	22727.3    	24.32478
442.0000      	22624.4    	24.46180
444.0000      	22522.5    	24.64237
446.0000      	22421.5    	24.77443
448.0000      	22321.4    	24.52060
450.0000      	22222.2    	24.67820
452.0000      	22123.9    	24.87525
454.0000      	22026.4    	24.93780
456.0000      	21929.8    	25.07558
458.0000      	21834.1    	25.35822
460.0000      	21739.1    	25.53682
462.0000      	21645    	25.67810
464.0000      	21551.7    	25.81962
466.0000      	21459.2    	26.02598
468.0000      	21367.5    	26.34480
470.0000      	21276.6    	26.60398
472.0000      	21186.4    	27.05014
474.0000      	21097    	27.47318
476.0000      	21008.4    	27.87009
478.0000      	20920.5    	28.05730
480.0000      	20833.3    	28.52623
482.0000      	20746.9    	29.05025
484.0000      	20661.2    	29.40831
486.0000      	20576.1    	29.73486
488.0000      	20491.8    	30.20618
490.0000      	20408.2    	30.64762
492.0000      	20325.2    	31.01361
494.0000      	20242.9    	31.36364
496.0000      	20161.3    	31.62292
498.0000      	20080.3    	31.86776
500.0000      	20000    	32.09193
502.0000      	19920.3    	32.28188
504.0000      	19841.3    	32.33135
506.0000      	19762.8    	32.22346
508.0000      	19685    	31.99245
510.0000      	19607.8    	31.61817
512.0000      	19531.2    	31.06845
514.0000      	19455.3    	30.55138
516.0000      	19379.8    	29.87045
518.0000      	19305    	28.88378
520.0000      	19230.8    	28.28866
522.0000      	19157.1    	27.38249
524.0000      	19084    	26.45644
526.0000      	19011.4    	25.86662
528.0000      	18939.4    	25.17016
530.0000      	18867.9    	24.62331
532.0000      	18797    	24.15094
534.0000      	18726.6    	23.80483
536.0000      	18656.7    	23.48210
538.0000      	18587.4    	23.41013
540.0000      	18518.5    	23.34804
542.0000      	18450.2    	23.27662
544.0000      	18382.4    	23.25957
546.0000      	18315    	23.19387
548.0000      	18248.2    	23.13551
550.0000      	18181.8    	22.96599
552.0000      	18115.9    	22.67282
554.0000      	18050.5    	22.33743
556.0000      	17985.6    	21.71487
558.0000      	17921.1    	21.27697
560.0000      	17857.1    	20.80332
562.0000      	17793.6    	20.23898
564.0000      	17730.5    	19.76415
566.0000      	17667.8    	19.37948
568.0000      	17605.6    	19.04922
570.0000      	17543.9    	19.00268
572.0000      	17482.5    	19.10939
574.0000      	17421.6    	19.28444
576.0000      	17361.1    	19.73649
578.0000      	17301    	20.44532
580.0000      	17241.4    	21.20033
582.0000      	17182.1    	22.00950
584.0000      	17123.3    	22.88034
586.0000      	17064.8    	23.77308
588.0000      	17006.8    	24.40637
590.0000      	16949.2    	25.19878
592.0000      	16891.9    	25.77113
594.0000      	16835    	26.06464
596.0000      	16778.5    	26.37827
598.0000      	16722.4    	26.60595
600.0000      	16666.7    	26.69528
602.0000      	16611.3    	26.77945
604.0000      	16556.3    	26.68229
606.0000      	16501.7    	26.69935
608.0000      	16447.4    	26.58779
610.0000      	16393.4    	26.60293
612.0000      	16339.9    	26.70865
614.0000      	16286.6    	26.64548
616.0000      	16233.8    	26.58547
618.0000      	16181.2    	26.69420
620.0000      	16129    	26.76261
622.0000      	16077.2    	26.65676
624.0000      	16025.6    	26.77096
626.0000      	15974.4    	26.82527
628.0000      	15923.6    	26.90630
630.0000      	15873    	26.90077
632.0000      	15822.8    	26.95225
634.0000      	15772.9    	26.96809
636.0000      	15723.3    	27.23115
638.0000      	15674    	27.36730
640.0000      	15625    	27.47095
642.0000      	15576.3    	27.78359
644.0000      	15528    	28.10574
646.0000      	15479.9    	28.49779
648.0000      	15432.1    	28.83867
650.0000      	15384.6    	29.16837
652.0000      	15337.4    	29.63795
654.0000      	15290.5    	29.97227
656.0000      	15243.9    	30.48575
658.0000      	15197.6    	30.80913
660.0000      	15151.5    	31.19895
662.0000      	15105.7    	31.54269
664.0000      	15060.2    	31.73425
666.0000      	15015    	32.08833
668.0000      	14970.1    	32.18791
670.0000      	14925.4    	32.28889
672.0000      	14881    	32.32388
674.0000      	14836.8    	32.08830
676.0000      	14792.9    	32.21291
678.0000      	14749.3    	32.20978
680.0000      	14705.9    	32.03953
682.0000      	14662.8    	31.94661
684.0000      	14619.9    	31.67463
686.0000      	14577.3    	31.37120
688.0000      	14534.9    	31.20128
690.0000      	14492.8    	31.18974
692.0000      	14450.9    	30.95637
694.0000      	14409.2    	30.92453
696.0000      	14367.8    	30.54922
698.0000      	14326.6    	30.45359
700.0000      	14285.7    	30.35339
702.0000      	14245    	30.15661
704.0000      	14204.5    	30.01303
706.0000      	14164.3    	29.51210
708.0000      	14124.3    	29.34311
710.0000      	14084.5    	29.36967
712.0000      	14044.9    	29.16036
714.0000      	14005.6    	28.95879
716.0000      	13966.5    	29.21591
718.0000      	13927.6    	29.46892
720.0000      	13888.9    	29.70334
722.0000      	13850.4    	30.15950
724.0000      	13812.2    	30.51575
726.0000      	13774.1    	30.90777
728.0000      	13736.3    	31.24306
730.0000      	13698.6    	31.98084
732.0000      	13661.2    	32.28073
734.0000      	13624    	33.03463
736.0000      	13587    	33.97768
738.0000      	13550.1    	34.77891
740.0000      	13513.5    	35.66161
742.0000      	13477.1    	36.61966
744.0000      	13440.9    	37.98953
746.0000      	13404.8    	39.34684
748.0000      	13369    	40.55178
750.0000      	13333.3    	42.31846
752.0000      	13297.9    	43.40536
754.0000      	13262.6    	45.33493
756.0000      	13227.5    	46.55254
758.0000      	13192.6    	48.18910
760.0000      	13157.9    	50.01939
762.0000      	13123.4    	51.07384
764.0000      	13089    	51.98439
766.0000      	13054.8    	52.69132
768.0000      	13020.8    	53.15923
770.0000      	12987    	53.85286
772.0000      	12953.4    	54.36461
774.0000      	12919.9    	54.63180
776.0000      	12886.6    	55.06454
778.0000      	12853.5    	55.27631
780.0000      	12820.5    	55.46413
782.0000      	12787.7    	55.86395
784.0000      	12755.1    	56.07391
786.0000      	12722.6    	55.76877
788.0000      	12690.4    	56.05395
790.0000      	12658.2    	56.59873
792.0000      	12626.3    	55.49257
794.0000      	12594.5    	55.63374
796.0000      	12562.8    	56.07054
798.0000      	12531.3    	55.91637
800.0000      	12500    	56.54710