File: data/Reflectance_measurements/Reflectance_2019_material/38_white/38_w_1.txt
Unit Serial No : 240-IM0P2424-EU
Integration Time : 10 ms
Time Average: 10
Binning Average: 2
FFT Smoothing: 0%
Project Name : RPS900-R
Sample Name :  SM240-IMOP2424-EU
Measurement No : 1
Measurement Time : 06/03/2019   15:03:17

Wavelength(nm)	Wavenumber(1/cm)	Transmittance(%)
300.0000      	33333.3    	14.24558
302.0000      	33112.6    	13.21229
304.0000      	32894.7    	12.83757
306.0000      	32679.7    	11.88206
308.0000      	32467.5    	12.09694
310.0000      	32258.1    	10.36226
312.0000      	32051.3    	9.80529
314.0000      	31847.1    	9.51401
316.0000      	31645.6    	9.35822
318.0000      	31446.5    	9.40977
320.0000      	31250    	8.26956
322.0000      	31055.9    	8.11117
324.0000      	30864.2    	8.39212
326.0000      	30674.8    	7.53700
328.0000      	30487.8    	7.28327
330.0000      	30303    	7.71644
332.0000      	30120.5    	7.65305
334.0000      	29940.1    	7.48604
336.0000      	29761.9    	6.91380
338.0000      	29585.8    	6.98736
340.0000      	29411.8    	7.52995
342.0000      	29239.8    	7.52516
344.0000      	29069.8    	7.01062
346.0000      	28901.7    	7.30071
348.0000      	28735.6    	7.48932
350.0000      	28571.4    	7.46346
352.0000      	28409.1    	7.78002
354.0000      	28248.6    	7.74104
356.0000      	28089.9    	8.15198
358.0000      	27933    	8.48371
360.0000      	27777.8    	8.55394
362.0000      	27624.3    	8.95154
364.0000      	27472.5    	9.10767
366.0000      	27322.4    	8.85637
368.0000      	27173.9    	9.66371
370.0000      	27027    	9.60329
372.0000      	26881.7    	9.72279
374.0000      	26738    	10.36441
376.0000      	26595.7    	10.95832
378.0000      	26455    	11.17506
380.0000      	26315.8    	11.57483
382.0000      	26178    	12.08600
384.0000      	26041.7    	12.87798
386.0000      	25906.7    	13.19802
388.0000      	25773.2    	13.48236
390.0000      	25641    	14.42255
392.0000      	25510.2    	14.84363
394.0000      	25380.7    	15.46866
396.0000      	25252.5    	16.26767
398.0000      	25125.6    	17.00422
400.0000      	25000    	17.85291
402.0000      	24875.6    	18.54542
404.0000      	24752.5    	19.32900
406.0000      	24630.5    	20.46493
408.0000      	24509.8    	21.62040
410.0000      	24390.2    	22.59850
412.0000      	24271.8    	23.38339
414.0000      	24154.6    	24.55926
416.0000      	24038.5    	25.30214
418.0000      	23923.4    	25.76111
420.0000      	23809.5    	26.13840
422.0000      	23696.7    	26.42281
424.0000      	23584.9    	27.10946
426.0000      	23474.2    	27.38504
428.0000      	23364.5    	27.87084
430.0000      	23255.8    	28.21748
432.0000      	23148.1    	28.42353
434.0000      	23041.5    	28.93969
436.0000      	22935.8    	29.43080
438.0000      	22831.1    	29.53344
440.0000      	22727.3    	30.06217
442.0000      	22624.4    	30.22419
444.0000      	22522.5    	30.33814
446.0000      	22421.5    	30.41753
448.0000      	22321.4    	30.29165
450.0000      	22222.2    	30.17837
452.0000      	22123.9    	30.38943
454.0000      	22026.4    	30.84462
456.0000      	21929.8    	30.96122
458.0000      	21834.1    	31.22993
460.0000      	21739.1    	31.32834
462.0000      	21645    	31.60289
464.0000      	21551.7    	31.86846
466.0000      	21459.2    	32.31294
468.0000      	21367.5    	32.68564
470.0000      	21276.6    	32.91697
472.0000      	21186.4    	33.37609
474.0000      	21097    	34.11479
476.0000      	21008.4    	34.49843
478.0000      	20920.5    	34.96421
480.0000      	20833.3    	35.45035
482.0000      	20746.9    	35.99356
484.0000      	20661.2    	36.42052
486.0000      	20576.1    	36.91332
488.0000      	20491.8    	37.56858
490.0000      	20408.2    	38.07492
492.0000      	20325.2    	38.61913
494.0000      	20242.9    	39.02927
496.0000      	20161.3    	39.35632
498.0000      	20080.3    	39.76934
500.0000      	20000    	39.92888
502.0000      	19920.3    	40.11423
504.0000      	19841.3    	40.25603
506.0000      	19762.8    	40.13637
508.0000      	19685    	39.79277
510.0000      	19607.8    	39.37632
512.0000      	19531.2    	38.62167
514.0000      	19455.3    	37.95386
516.0000      	19379.8    	37.09689
518.0000      	19305    	35.94701
520.0000      	19230.8    	35.05740
522.0000      	19157.1    	33.93893
524.0000      	19084    	32.72192
526.0000      	19011.4    	31.88791
528.0000      	18939.4    	30.91964
530.0000      	18867.9    	30.21902
532.0000      	18797    	29.60936
534.0000      	18726.6    	29.23025
536.0000      	18656.7    	28.77928
538.0000      	18587.4    	28.55581
540.0000      	18518.5    	28.45484
542.0000      	18450.2    	28.51105
544.0000      	18382.4    	28.41809
546.0000      	18315    	28.43918
548.0000      	18248.2    	28.36538
550.0000      	18181.8    	28.08311
552.0000      	18115.9    	27.77269
554.0000      	18050.5    	27.34104
556.0000      	17985.6    	26.54202
558.0000      	17921.1    	25.95403
560.0000      	17857.1    	25.17912
562.0000      	17793.6    	24.45145
564.0000      	17730.5    	24.00570
566.0000      	17667.8    	23.46951
568.0000      	17605.6    	23.04020
570.0000      	17543.9    	22.96041
572.0000      	17482.5    	23.14380
574.0000      	17421.6    	23.45225
576.0000      	17361.1    	24.00075
578.0000      	17301    	24.87185
580.0000      	17241.4    	25.89092
582.0000      	17182.1    	26.70366
584.0000      	17123.3    	27.92373
586.0000      	17064.8    	29.14498
588.0000      	17006.8    	29.89054
590.0000      	16949.2    	30.90725
592.0000      	16891.9    	31.59066
594.0000      	16835    	32.02299
596.0000      	16778.5    	32.50353
598.0000      	16722.4    	32.72643
600.0000      	16666.7    	32.80958
602.0000      	16611.3    	32.92006
604.0000      	16556.3    	32.88736
606.0000      	16501.7    	32.88013
608.0000      	16447.4    	32.84815
610.0000      	16393.4    	32.76560
612.0000      	16339.9    	32.83526
614.0000      	16286.6    	32.80840
616.0000      	16233.8    	32.74030
618.0000      	16181.2    	32.73869
620.0000      	16129    	32.85902
622.0000      	16077.2    	32.74833
624.0000      	16025.6    	32.81073
626.0000      	15974.4    	32.94705
628.0000      	15923.6    	33.11408
630.0000      	15873    	33.19957
632.0000      	15822.8    	33.31680
634.0000      	15772.9    	33.39562
636.0000      	15723.3    	33.71684
638.0000      	15674    	33.77242
640.0000      	15625    	33.99583
642.0000      	15576.3    	34.39653
644.0000      	15528    	34.93827
646.0000      	15479.9    	35.27417
648.0000      	15432.1    	35.59869
650.0000      	15384.6    	36.11176
652.0000      	15337.4    	36.67248
654.0000      	15290.5    	37.09308
656.0000      	15243.9    	37.69870
658.0000      	15197.6    	38.14590
660.0000      	15151.5    	38.73992
662.0000      	15105.7    	39.25465
664.0000      	15060.2    	39.41248
666.0000      	15015    	39.91477
668.0000      	14970.1    	40.12967
670.0000      	14925.4    	40.21455
672.0000      	14881    	40.20761
674.0000      	14836.8    	40.03157
676.0000      	14792.9    	39.94785
678.0000      	14749.3    	40.00715
680.0000      	14705.9    	39.67746
682.0000      	14662.8    	39.53025
684.0000      	14619.9    	39.36541
686.0000      	14577.3    	39.06111
688.0000      	14534.9    	38.90768
690.0000      	14492.8    	38.67261
692.0000      	14450.9    	38.30987
694.0000      	14409.2    	38.34143
696.0000      	14367.8    	38.06950
698.0000      	14326.6    	37.74859
700.0000      	14285.7    	37.58919
702.0000      	14245    	37.13979
704.0000      	14204.5    	36.85674
706.0000      	14164.3    	36.58169
708.0000      	14124.3    	36.37534
710.0000      	14084.5    	36.20198
712.0000      	14044.9    	36.05711
714.0000      	14005.6    	35.73933
716.0000      	13966.5    	36.03322
718.0000      	13927.6    	36.21721
720.0000      	13888.9    	36.65090
722.0000      	13850.4    	37.35327
724.0000      	13812.2    	37.83842
726.0000      	13774.1    	38.33523
728.0000      	13736.3    	38.50356
730.0000      	13698.6    	39.48652
732.0000      	13661.2    	40.04706
734.0000      	13624    	41.21556
736.0000      	13587    	42.17759
738.0000      	13550.1    	42.98006
740.0000      	13513.5    	44.34595
742.0000      	13477.1    	45.62951
744.0000      	13440.9    	47.68173
746.0000      	13404.8    	49.61376
748.0000      	13369    	51.12658
750.0000      	13333.3    	53.50148
752.0000      	13297.9    	55.20156
754.0000      	13262.6    	57.85776
756.0000      	13227.5    	59.44402
758.0000      	13192.6    	61.41018
760.0000      	13157.9    	63.66106
762.0000      	13123.4    	64.97670
764.0000      	13089    	66.57316
766.0000      	13054.8    	67.78785
768.0000      	13020.8    	68.73822
770.0000      	12987    	69.48835
772.0000      	12953.4    	70.04253
774.0000      	12919.9    	70.66701
776.0000      	12886.6    	70.79636
778.0000      	12853.5    	71.63171
780.0000      	12820.5    	71.93545
782.0000      	12787.7    	71.98354
784.0000      	12755.1    	72.13238
786.0000      	12722.6    	72.37681
788.0000      	12690.4    	72.64128
790.0000      	12658.2    	72.80818
792.0000      	12626.3    	71.97126
794.0000      	12594.5    	72.52753
796.0000      	12562.8    	72.59959
798.0000      	12531.3    	72.23753
800.0000      	12500    	72.68572