File: data/Reflectance_measurements/Reflectance_2019_material/87_white/87_white.txt
Unit Serial No : 240-IM0P2424-EU
Integration Time : 10 ms
Time Average: 10
Binning Average: 2
FFT Smoothing: 0%
Project Name : RPS900-R
Sample Name :  SM240-IMOP2424-EU
Measurement No : 1
Measurement Time : 06/03/2019   14:38:14

Wavelength(nm)	Wavenumber(1/cm)	Transmittance(%)
300.0000      	33333.3    	7.53989
302.0000      	33112.6    	7.97375
304.0000      	32894.7    	9.91107
306.0000      	32679.7    	7.55753
308.0000      	32467.5    	7.62773
310.0000      	32258.1    	7.14123
312.0000      	32051.3    	7.21254
314.0000      	31847.1    	7.61484
316.0000      	31645.6    	6.66322
318.0000      	31446.5    	6.51591
320.0000      	31250    	6.57546
322.0000      	31055.9    	6.27175
324.0000      	30864.2    	6.27573
326.0000      	30674.8    	6.31816
328.0000      	30487.8    	5.41027
330.0000      	30303    	6.09303
332.0000      	30120.5    	5.47476
334.0000      	29940.1    	5.37437
336.0000      	29761.9    	5.82033
338.0000      	29585.8    	5.67876
340.0000      	29411.8    	5.11669
342.0000      	29239.8    	5.74217
344.0000      	29069.8    	5.42663
346.0000      	28901.7    	5.74692
348.0000      	28735.6    	5.65260
350.0000      	28571.4    	5.32269
352.0000      	28409.1    	5.50255
354.0000      	28248.6    	5.39510
356.0000      	28089.9    	5.18089
358.0000      	27933    	5.47139
360.0000      	27777.8    	5.63432
362.0000      	27624.3    	5.48360
364.0000      	27472.5    	5.70032
366.0000      	27322.4    	5.36876
368.0000      	27173.9    	5.25784
370.0000      	27027    	5.41635
372.0000      	26881.7    	5.32392
374.0000      	26738    	5.50273
376.0000      	26595.7    	5.27461
378.0000      	26455    	5.37536
380.0000      	26315.8    	5.68158
382.0000      	26178    	5.56460
384.0000      	26041.7    	5.62653
386.0000      	25906.7    	5.61763
388.0000      	25773.2    	5.60593
390.0000      	25641    	5.83954
392.0000      	25510.2    	5.97302
394.0000      	25380.7    	5.92134
396.0000      	25252.5    	6.09895
398.0000      	25125.6    	6.17577
400.0000      	25000    	6.24155
402.0000      	24875.6    	6.32457
404.0000      	24752.5    	6.29847
406.0000      	24630.5    	6.31537
408.0000      	24509.8    	6.50946
410.0000      	24390.2    	6.46256
412.0000      	24271.8    	6.59071
414.0000      	24154.6    	6.75020
416.0000      	24038.5    	6.52650
418.0000      	23923.4    	6.65175
420.0000      	23809.5    	6.73158
422.0000      	23696.7    	6.65286
424.0000      	23584.9    	6.95476
426.0000      	23474.2    	6.91667
428.0000      	23364.5    	6.93240
430.0000      	23255.8    	6.95721
432.0000      	23148.1    	6.99710
434.0000      	23041.5    	6.92414
436.0000      	22935.8    	7.14785
438.0000      	22831.1    	7.26437
440.0000      	22727.3    	7.20599
442.0000      	22624.4    	7.34658
444.0000      	22522.5    	7.42023
446.0000      	22421.5    	7.35500
448.0000      	22321.4    	7.43552
450.0000      	22222.2    	7.37401
452.0000      	22123.9    	7.51886
454.0000      	22026.4    	7.65596
456.0000      	21929.8    	7.62453
458.0000      	21834.1    	7.69678
460.0000      	21739.1    	7.74718
462.0000      	21645    	7.78030
464.0000      	21551.7    	7.95562
466.0000      	21459.2    	8.10915
468.0000      	21367.5    	8.08158
470.0000      	21276.6    	8.25230
472.0000      	21186.4    	8.31780
474.0000      	21097    	8.47425
476.0000      	21008.4    	8.67077
478.0000      	20920.5    	8.69221
480.0000      	20833.3    	8.78343
482.0000      	20746.9    	8.96148
484.0000      	20661.2    	9.13831
486.0000      	20576.1    	9.24679
488.0000      	20491.8    	9.36635
490.0000      	20408.2    	9.47246
492.0000      	20325.2    	9.53809
494.0000      	20242.9    	9.65734
496.0000      	20161.3    	9.76878
498.0000      	20080.3    	9.87836
500.0000      	20000    	9.89151
502.0000      	19920.3    	9.93212
504.0000      	19841.3    	10.04346
506.0000      	19762.8    	9.91801
508.0000      	19685    	9.79423
510.0000      	19607.8    	9.76434
512.0000      	19531.2    	9.58950
514.0000      	19455.3    	9.40953
516.0000      	19379.8    	9.17933
518.0000      	19305    	8.88857
520.0000      	19230.8    	8.71749
522.0000      	19157.1    	8.44007
524.0000      	19084    	8.19091
526.0000      	19011.4    	8.01490
528.0000      	18939.4    	7.79945
530.0000      	18867.9    	7.69401
532.0000      	18797    	7.50172
534.0000      	18726.6    	7.41786
536.0000      	18656.7    	7.30960
538.0000      	18587.4    	7.25638
540.0000      	18518.5    	7.24628
542.0000      	18450.2    	7.23367
544.0000      	18382.4    	7.20514
546.0000      	18315    	7.13394
548.0000      	18248.2    	7.10449
550.0000      	18181.8    	7.05389
552.0000      	18115.9    	6.97104
554.0000      	18050.5    	6.84202
556.0000      	17985.6    	6.68306
558.0000      	17921.1    	6.58093
560.0000      	17857.1    	6.45915
562.0000      	17793.6    	6.32249
564.0000      	17730.5    	6.19207
566.0000      	17667.8    	6.13762
568.0000      	17605.6    	6.11832
570.0000      	17543.9    	6.07904
572.0000      	17482.5    	6.10980
574.0000      	17421.6    	6.19572
576.0000      	17361.1    	6.24244
578.0000      	17301    	6.43925
580.0000      	17241.4    	6.63578
582.0000      	17182.1    	6.81082
584.0000      	17123.3    	6.98827
586.0000      	17064.8    	7.27788
588.0000      	17006.8    	7.48448
590.0000      	16949.2    	7.76768
592.0000      	16891.9    	7.88053
594.0000      	16835    	7.94549
596.0000      	16778.5    	8.15936
598.0000      	16722.4    	8.20605
600.0000      	16666.7    	8.25423
602.0000      	16611.3    	8.32033
604.0000      	16556.3    	8.27763
606.0000      	16501.7    	8.32045
608.0000      	16447.4    	8.28511
610.0000      	16393.4    	8.29509
612.0000      	16339.9    	8.40585
614.0000      	16286.6    	8.34217
616.0000      	16233.8    	8.30449
618.0000      	16181.2    	8.30107
620.0000      	16129    	8.35230
622.0000      	16077.2    	8.31102
624.0000      	16025.6    	8.38978
626.0000      	15974.4    	8.41030
628.0000      	15923.6    	8.45638
630.0000      	15873    	8.56924
632.0000      	15822.8    	8.52269
634.0000      	15772.9    	8.51622
636.0000      	15723.3    	8.68295
638.0000      	15674    	8.68387
640.0000      	15625    	8.71337
642.0000      	15576.3    	8.76724
644.0000      	15528    	8.79659
646.0000      	15479.9    	8.93758
648.0000      	15432.1    	9.01983
650.0000      	15384.6    	9.09979
652.0000      	15337.4    	9.08527
654.0000      	15290.5    	9.26137
656.0000      	15243.9    	9.43035
658.0000      	15197.6    	9.48240
660.0000      	15151.5    	9.70275
662.0000      	15105.7    	9.71081
664.0000      	15060.2    	9.74592
666.0000      	15015    	9.96899
668.0000      	14970.1    	9.99167
670.0000      	14925.4    	10.06919
672.0000      	14881    	10.08503
674.0000      	14836.8    	10.03541
676.0000      	14792.9    	9.96776
678.0000      	14749.3    	10.10225
680.0000      	14705.9    	9.98904
682.0000      	14662.8    	9.94417
684.0000      	14619.9    	9.97697
686.0000      	14577.3    	9.89958
688.0000      	14534.9    	9.89323
690.0000      	14492.8    	9.82108
692.0000      	14450.9    	9.71560
694.0000      	14409.2    	9.73142
696.0000      	14367.8    	9.71955
698.0000      	14326.6    	9.67654
700.0000      	14285.7    	9.60613
702.0000      	14245    	9.66703
704.0000      	14204.5    	9.56979
706.0000      	14164.3    	9.39539
708.0000      	14124.3    	9.35431
710.0000      	14084.5    	9.31772
712.0000      	14044.9    	9.30782
714.0000      	14005.6    	9.27626
716.0000      	13966.5    	9.24894
718.0000      	13927.6    	9.49608
720.0000      	13888.9    	9.65261
722.0000      	13850.4    	9.76101
724.0000      	13812.2    	10.10075
726.0000      	13774.1    	10.07015
728.0000      	13736.3    	10.01436
730.0000      	13698.6    	10.32631
732.0000      	13661.2    	10.49550
734.0000      	13624    	10.79917
736.0000      	13587    	11.05585
738.0000      	13550.1    	11.45578
740.0000      	13513.5    	11.71255
742.0000      	13477.1    	12.16028
744.0000      	13440.9    	12.66113
746.0000      	13404.8    	13.14260
748.0000      	13369    	13.72331
750.0000      	13333.3    	14.29920
752.0000      	13297.9    	14.80921
754.0000      	13262.6    	15.88496
756.0000      	13227.5    	16.52252
758.0000      	13192.6    	16.94069
760.0000      	13157.9    	17.77383
762.0000      	13123.4    	18.34105
764.0000      	13089    	19.00414
766.0000      	13054.8    	19.28220
768.0000      	13020.8    	19.79946
770.0000      	12987    	20.27910
772.0000      	12953.4    	20.69691
774.0000      	12919.9    	20.82965
776.0000      	12886.6    	21.13574
778.0000      	12853.5    	21.51558
780.0000      	12820.5    	21.78793
782.0000      	12787.7    	21.72412
784.0000      	12755.1    	22.26662
786.0000      	12722.6    	22.14794
788.0000      	12690.4    	21.93149
790.0000      	12658.2    	22.56897
792.0000      	12626.3    	22.23413
794.0000      	12594.5    	22.27789
796.0000      	12562.8    	22.53730
798.0000      	12531.3    	22.36617
800.0000      	12500    	22.95245