File: data/Reflectance_measurements/Reflectance_2019_material/6/6_1.txt
Unit Serial No : 240-IM0P2424-EU
Integration Time : 10 ms
Time Average: 10
Binning Average: 2
FFT Smoothing: 0%
Project Name : RPS900-R
Sample Name :  SM240-IMOP2424-EU
Measurement No : 1
Measurement Time : 06/03/2019   16:43:28

Wavelength(nm)	Wavenumber(1/cm)	Transmittance(%)
300.0000      	33333.3    	16.26999
302.0000      	33112.6    	14.05752
304.0000      	32894.7    	13.69519
306.0000      	32679.7    	13.22185
308.0000      	32467.5    	12.59465
310.0000      	32258.1    	11.52956
312.0000      	32051.3    	10.69229
314.0000      	31847.1    	11.15541
316.0000      	31645.6    	10.35474
318.0000      	31446.5    	10.09393
320.0000      	31250    	9.64770
322.0000      	31055.9    	9.56543
324.0000      	30864.2    	9.25517
326.0000      	30674.8    	8.89737
328.0000      	30487.8    	8.51255
330.0000      	30303    	8.48299
332.0000      	30120.5    	8.81445
334.0000      	29940.1    	8.16139
336.0000      	29761.9    	8.83939
338.0000      	29585.8    	8.65196
340.0000      	29411.8    	9.14474
342.0000      	29239.8    	9.31443
344.0000      	29069.8    	9.03990
346.0000      	28901.7    	8.91763
348.0000      	28735.6    	9.15265
350.0000      	28571.4    	9.85383
352.0000      	28409.1    	10.10935
354.0000      	28248.6    	10.57430
356.0000      	28089.9    	10.91091
358.0000      	27933    	12.06738
360.0000      	27777.8    	12.70554
362.0000      	27624.3    	13.25416
364.0000      	27472.5    	13.65702
366.0000      	27322.4    	14.25253
368.0000      	27173.9    	14.96348
370.0000      	27027    	15.76615
372.0000      	26881.7    	16.08671
374.0000      	26738    	16.99122
376.0000      	26595.7    	17.77068
378.0000      	26455    	19.04883
380.0000      	26315.8    	20.39795
382.0000      	26178    	21.02921
384.0000      	26041.7    	22.18268
386.0000      	25906.7    	23.41049
388.0000      	25773.2    	24.73586
390.0000      	25641    	25.63308
392.0000      	25510.2    	26.47367
394.0000      	25380.7    	27.55387
396.0000      	25252.5    	28.68432
398.0000      	25125.6    	30.45490
400.0000      	25000    	32.53945
402.0000      	24875.6    	34.17770
404.0000      	24752.5    	36.68998
406.0000      	24630.5    	39.43226
408.0000      	24509.8    	42.86122
410.0000      	24390.2    	46.37487
412.0000      	24271.8    	49.36998
414.0000      	24154.6    	52.48801
416.0000      	24038.5    	54.96571
418.0000      	23923.4    	57.01244
420.0000      	23809.5    	57.93577
422.0000      	23696.7    	59.11876
424.0000      	23584.9    	60.29854
426.0000      	23474.2    	61.18472
428.0000      	23364.5    	61.95390
430.0000      	23255.8    	62.85999
432.0000      	23148.1    	64.34827
434.0000      	23041.5    	65.34786
436.0000      	22935.8    	65.98911
438.0000      	22831.1    	66.12679
440.0000      	22727.3    	66.76114
442.0000      	22624.4    	66.65159
444.0000      	22522.5    	66.45183
446.0000      	22421.5    	66.19527
448.0000      	22321.4    	65.03332
450.0000      	22222.2    	64.06702
452.0000      	22123.9    	63.88420
454.0000      	22026.4    	63.76862
456.0000      	21929.8    	63.28743
458.0000      	21834.1    	63.02789
460.0000      	21739.1    	62.67190
462.0000      	21645    	62.54109
464.0000      	21551.7    	62.43465
466.0000      	21459.2    	62.26030
468.0000      	21367.5    	62.29016
470.0000      	21276.6    	62.39997
472.0000      	21186.4    	62.67086
474.0000      	21097    	62.75428
476.0000      	21008.4    	62.85908
478.0000      	20920.5    	62.80822
480.0000      	20833.3    	62.86485
482.0000      	20746.9    	62.68215
484.0000      	20661.2    	62.68103
486.0000      	20576.1    	62.66283
488.0000      	20491.8    	62.86626
490.0000      	20408.2    	62.80384
492.0000      	20325.2    	62.73164
494.0000      	20242.9    	62.83361
496.0000      	20161.3    	62.92683
498.0000      	20080.3    	63.07088
500.0000      	20000    	62.90093
502.0000      	19920.3    	62.81178
504.0000      	19841.3    	62.92469
506.0000      	19762.8    	62.81540
508.0000      	19685    	62.53628
510.0000      	19607.8    	62.17851
512.0000      	19531.2    	61.80035
514.0000      	19455.3    	61.48103
516.0000      	19379.8    	60.99977
518.0000      	19305    	60.43900
520.0000      	19230.8    	59.96132
522.0000      	19157.1    	59.49420
524.0000      	19084    	58.81971
526.0000      	19011.4    	58.46753
528.0000      	18939.4    	57.92664
530.0000      	18867.9    	57.64897
532.0000      	18797    	57.25254
534.0000      	18726.6    	57.04055
536.0000      	18656.7    	56.80563
538.0000      	18587.4    	56.63586
540.0000      	18518.5    	56.58094
542.0000      	18450.2    	56.54311
544.0000      	18382.4    	56.45936
546.0000      	18315    	56.27856
548.0000      	18248.2    	55.97150
550.0000      	18181.8    	55.69213
552.0000      	18115.9    	55.40218
554.0000      	18050.5    	55.03292
556.0000      	17985.6    	54.60201
558.0000      	17921.1    	54.02501
560.0000      	17857.1    	53.44962
562.0000      	17793.6    	52.76826
564.0000      	17730.5    	52.11940
566.0000      	17667.8    	51.64918
568.0000      	17605.6    	51.15344
570.0000      	17543.9    	50.82705
572.0000      	17482.5    	50.82915
574.0000      	17421.6    	50.87230
576.0000      	17361.1    	51.17921
578.0000      	17301    	51.94697
580.0000      	17241.4    	52.83606
582.0000      	17182.1    	53.59446
584.0000      	17123.3    	54.69145
586.0000      	17064.8    	55.35433
588.0000      	17006.8    	55.94426
590.0000      	16949.2    	56.53281
592.0000      	16891.9    	56.87631
594.0000      	16835    	57.09044
596.0000      	16778.5    	57.53362
598.0000      	16722.4    	57.57077
600.0000      	16666.7    	57.63875
602.0000      	16611.3    	57.71577
604.0000      	16556.3    	57.61317
606.0000      	16501.7    	57.76645
608.0000      	16447.4    	57.71445
610.0000      	16393.4    	57.83072
612.0000      	16339.9    	57.62474
614.0000      	16286.6    	57.59781
616.0000      	16233.8    	57.66861
618.0000      	16181.2    	57.55247
620.0000      	16129    	57.39297
622.0000      	16077.2    	57.33540
624.0000      	16025.6    	57.39471
626.0000      	15974.4    	57.48918
628.0000      	15923.6    	57.40759
630.0000      	15873    	57.55202
632.0000      	15822.8    	57.63676
634.0000      	15772.9    	57.73125
636.0000      	15723.3    	57.97210
638.0000      	15674    	58.29386
640.0000      	15625    	58.63600
642.0000      	15576.3    	58.89232
644.0000      	15528    	59.15086
646.0000      	15479.9    	59.57358
648.0000      	15432.1    	59.89991
650.0000      	15384.6    	60.23316
652.0000      	15337.4    	60.54852
654.0000      	15290.5    	61.08633
656.0000      	15243.9    	61.45292
658.0000      	15197.6    	61.68945
660.0000      	15151.5    	61.97433
662.0000      	15105.7    	62.33641
664.0000      	15060.2    	62.34939
666.0000      	15015    	62.24082
668.0000      	14970.1    	62.40309
670.0000      	14925.4    	62.36422
672.0000      	14881    	62.58646
674.0000      	14836.8    	62.77739
676.0000      	14792.9    	62.45383
678.0000      	14749.3    	62.24346
680.0000      	14705.9    	61.91962
682.0000      	14662.8    	61.65181
684.0000      	14619.9    	61.49466
686.0000      	14577.3    	61.26609
688.0000      	14534.9    	61.02870
690.0000      	14492.8    	60.87917
692.0000      	14450.9    	61.02132
694.0000      	14409.2    	61.21164
696.0000      	14367.8    	60.91478
698.0000      	14326.6    	60.78475
700.0000      	14285.7    	60.86535
702.0000      	14245    	60.90791
704.0000      	14204.5    	60.87366
706.0000      	14164.3    	60.80484
708.0000      	14124.3    	60.55817
710.0000      	14084.5    	60.42515
712.0000      	14044.9    	60.48232
714.0000      	14005.6    	60.32269
716.0000      	13966.5    	60.06575
718.0000      	13927.6    	60.17877
720.0000      	13888.9    	60.44247
722.0000      	13850.4    	60.80592
724.0000      	13812.2    	60.87915
726.0000      	13774.1    	60.77133
728.0000      	13736.3    	60.95158
730.0000      	13698.6    	60.89336
732.0000      	13661.2    	60.88588
734.0000      	13624    	60.96284
736.0000      	13587    	61.07192
738.0000      	13550.1    	61.22079
740.0000      	13513.5    	61.50294
742.0000      	13477.1    	61.70764
744.0000      	13440.9    	62.21673
746.0000      	13404.8    	62.13830
748.0000      	13369    	62.35347
750.0000      	13333.3    	63.17696
752.0000      	13297.9    	63.24464
754.0000      	13262.6    	63.53360
756.0000      	13227.5    	63.54037
758.0000      	13192.6    	64.03447
760.0000      	13157.9    	64.04932
762.0000      	13123.4    	64.34837
764.0000      	13089    	64.01340
766.0000      	13054.8    	63.95660
768.0000      	13020.8    	63.93071
770.0000      	12987    	64.31189
772.0000      	12953.4    	64.66386
774.0000      	12919.9    	64.22043
776.0000      	12886.6    	64.44958
778.0000      	12853.5    	64.83212
780.0000      	12820.5    	64.99642
782.0000      	12787.7    	64.40527
784.0000      	12755.1    	64.06376
786.0000      	12722.6    	64.04379
788.0000      	12690.4    	64.69144
790.0000      	12658.2    	64.41952
792.0000      	12626.3    	63.72583
794.0000      	12594.5    	64.30307
796.0000      	12562.8    	64.21529
798.0000      	12531.3    	63.96988
800.0000      	12500    	64.02669