File: data/Reflectance_measurements/Reflectance_2019_material/6/6_2.txt
Unit Serial No : 240-IM0P2424-EU
Integration Time : 10 ms
Time Average: 10
Binning Average: 2
FFT Smoothing: 0%
Project Name : RPS900-R
Sample Name :  SM240-IMOP2424-EU
Measurement No : 1
Measurement Time : 06/03/2019   16:43:45

Wavelength(nm)	Wavenumber(1/cm)	Transmittance(%)
300.0000      	33333.3    	15.49887
302.0000      	33112.6    	14.48434
304.0000      	32894.7    	12.77292
306.0000      	32679.7    	13.14150
308.0000      	32467.5    	11.55826
310.0000      	32258.1    	11.88239
312.0000      	32051.3    	11.05122
314.0000      	31847.1    	10.56343
316.0000      	31645.6    	10.74720
318.0000      	31446.5    	10.39049
320.0000      	31250    	9.70460
322.0000      	31055.9    	9.65642
324.0000      	30864.2    	9.83471
326.0000      	30674.8    	9.17402
328.0000      	30487.8    	8.95910
330.0000      	30303    	8.84429
332.0000      	30120.5    	9.07279
334.0000      	29940.1    	8.22974
336.0000      	29761.9    	8.71079
338.0000      	29585.8    	8.75657
340.0000      	29411.8    	8.70686
342.0000      	29239.8    	8.78548
344.0000      	29069.8    	9.40639
346.0000      	28901.7    	9.18935
348.0000      	28735.6    	8.92035
350.0000      	28571.4    	9.59214
352.0000      	28409.1    	10.27808
354.0000      	28248.6    	10.51792
356.0000      	28089.9    	10.95820
358.0000      	27933    	11.69084
360.0000      	27777.8    	12.55450
362.0000      	27624.3    	12.88804
364.0000      	27472.5    	13.61462
366.0000      	27322.4    	14.49619
368.0000      	27173.9    	14.95410
370.0000      	27027    	15.64768
372.0000      	26881.7    	16.28041
374.0000      	26738    	16.87139
376.0000      	26595.7    	17.75796
378.0000      	26455    	19.30099
380.0000      	26315.8    	20.19311
382.0000      	26178    	21.00976
384.0000      	26041.7    	22.54623
386.0000      	25906.7    	23.36502
388.0000      	25773.2    	24.56852
390.0000      	25641    	25.83192
392.0000      	25510.2    	26.57558
394.0000      	25380.7    	27.62897
396.0000      	25252.5    	29.18835
398.0000      	25125.6    	30.68798
400.0000      	25000    	32.63890
402.0000      	24875.6    	34.17561
404.0000      	24752.5    	36.53531
406.0000      	24630.5    	39.58974
408.0000      	24509.8    	43.01302
410.0000      	24390.2    	46.29234
412.0000      	24271.8    	49.14520
414.0000      	24154.6    	52.17487
416.0000      	24038.5    	54.97038
418.0000      	23923.4    	57.05464
420.0000      	23809.5    	57.85450
422.0000      	23696.7    	59.04864
424.0000      	23584.9    	60.15773
426.0000      	23474.2    	61.07296
428.0000      	23364.5    	62.01010
430.0000      	23255.8    	62.73004
432.0000      	23148.1    	64.15627
434.0000      	23041.5    	65.36007
436.0000      	22935.8    	65.81731
438.0000      	22831.1    	66.30988
440.0000      	22727.3    	66.73298
442.0000      	22624.4    	66.44973
444.0000      	22522.5    	66.37763
446.0000      	22421.5    	66.20789
448.0000      	22321.4    	65.00591
450.0000      	22222.2    	63.97172
452.0000      	22123.9    	63.69330
454.0000      	22026.4    	63.51853
456.0000      	21929.8    	63.16472
458.0000      	21834.1    	62.91711
460.0000      	21739.1    	62.67190
462.0000      	21645    	62.69592
464.0000      	21551.7    	62.43578
466.0000      	21459.2    	62.31467
468.0000      	21367.5    	62.11610
470.0000      	21276.6    	62.29800
472.0000      	21186.4    	62.65049
474.0000      	21097    	62.71390
476.0000      	21008.4    	62.84268
478.0000      	20920.5    	62.80873
480.0000      	20833.3    	62.75707
482.0000      	20746.9    	62.64213
484.0000      	20661.2    	62.66225
486.0000      	20576.1    	62.73926
488.0000      	20491.8    	62.85626
490.0000      	20408.2    	62.75259
492.0000      	20325.2    	62.70488
494.0000      	20242.9    	62.92722
496.0000      	20161.3    	63.02163
498.0000      	20080.3    	63.03828
500.0000      	20000    	62.99261
502.0000      	19920.3    	62.91636
504.0000      	19841.3    	62.78656
506.0000      	19762.8    	62.75832
508.0000      	19685    	62.51245
510.0000      	19607.8    	62.04184
512.0000      	19531.2    	61.80534
514.0000      	19455.3    	61.43176
516.0000      	19379.8    	60.85154
518.0000      	19305    	60.30085
520.0000      	19230.8    	59.94094
522.0000      	19157.1    	59.39460
524.0000      	19084    	58.89513
526.0000      	19011.4    	58.52117
528.0000      	18939.4    	57.84825
530.0000      	18867.9    	57.56475
532.0000      	18797    	57.29033
534.0000      	18726.6    	57.11085
536.0000      	18656.7    	56.89971
538.0000      	18587.4    	56.58627
540.0000      	18518.5    	56.59775
542.0000      	18450.2    	56.55415
544.0000      	18382.4    	56.26548
546.0000      	18315    	56.14773
548.0000      	18248.2    	55.88682
550.0000      	18181.8    	55.78077
552.0000      	18115.9    	55.50081
554.0000      	18050.5    	54.99497
556.0000      	17985.6    	54.45059
558.0000      	17921.1    	53.99353
560.0000      	17857.1    	53.25709
562.0000      	17793.6    	52.65987
564.0000      	17730.5    	52.19525
566.0000      	17667.8    	51.72343
568.0000      	17605.6    	51.17828
570.0000      	17543.9    	50.94438
572.0000      	17482.5    	50.81413
574.0000      	17421.6    	50.81242
576.0000      	17361.1    	51.18862
578.0000      	17301    	51.99506
580.0000      	17241.4    	52.88117
582.0000      	17182.1    	53.74110
584.0000      	17123.3    	54.69202
586.0000      	17064.8    	55.53693
588.0000      	17006.8    	56.05231
590.0000      	16949.2    	56.56427
592.0000      	16891.9    	57.00200
594.0000      	16835    	57.22445
596.0000      	16778.5    	57.44981
598.0000      	16722.4    	57.68014
600.0000      	16666.7    	57.91960
602.0000      	16611.3    	57.70039
604.0000      	16556.3    	57.72074
606.0000      	16501.7    	57.78229
608.0000      	16447.4    	57.71864
610.0000      	16393.4    	57.73185
612.0000      	16339.9    	57.48329
614.0000      	16286.6    	57.50483
616.0000      	16233.8    	57.52448
618.0000      	16181.2    	57.54408
620.0000      	16129    	57.37550
622.0000      	16077.2    	57.39021
624.0000      	16025.6    	57.46194
626.0000      	15974.4    	57.38236
628.0000      	15923.6    	57.48822
630.0000      	15873    	57.74111
632.0000      	15822.8    	57.74431
634.0000      	15772.9    	57.75850
636.0000      	15723.3    	57.92372
638.0000      	15674    	58.25793
640.0000      	15625    	58.58125
642.0000      	15576.3    	58.77165
644.0000      	15528    	59.19821
646.0000      	15479.9    	59.79201
648.0000      	15432.1    	59.95512
650.0000      	15384.6    	60.27234
652.0000      	15337.4    	60.59846
654.0000      	15290.5    	61.04146
656.0000      	15243.9    	61.41545
658.0000      	15197.6    	61.85732
660.0000      	15151.5    	61.97665
662.0000      	15105.7    	62.32629
664.0000      	15060.2    	62.30020
666.0000      	15015    	62.51747
668.0000      	14970.1    	62.80045
670.0000      	14925.4    	62.37527
672.0000      	14881    	62.32028
674.0000      	14836.8    	62.49948
676.0000      	14792.9    	62.34217
678.0000      	14749.3    	62.05562
680.0000      	14705.9    	61.79482
682.0000      	14662.8    	61.74809
684.0000      	14619.9    	61.61089
686.0000      	14577.3    	61.33607
688.0000      	14534.9    	61.11403
690.0000      	14492.8    	60.84196
692.0000      	14450.9    	60.94738
694.0000      	14409.2    	61.10205
696.0000      	14367.8    	61.00646
698.0000      	14326.6    	61.07873
700.0000      	14285.7    	60.91862
702.0000      	14245    	60.81352
704.0000      	14204.5    	60.71169
706.0000      	14164.3    	60.79282
708.0000      	14124.3    	60.72755
710.0000      	14084.5    	60.51667
712.0000      	14044.9    	60.49116
714.0000      	14005.6    	60.34720
716.0000      	13966.5    	60.32884
718.0000      	13927.6    	60.26589
720.0000      	13888.9    	60.38192
722.0000      	13850.4    	60.55666
724.0000      	13812.2    	60.64050
726.0000      	13774.1    	60.74833
728.0000      	13736.3    	60.81835
730.0000      	13698.6    	60.77628
732.0000      	13661.2    	60.90742
734.0000      	13624    	61.13367
736.0000      	13587    	61.09703
738.0000      	13550.1    	61.24804
740.0000      	13513.5    	61.69172
742.0000      	13477.1    	61.62028
744.0000      	13440.9    	62.07140
746.0000      	13404.8    	62.31609
748.0000      	13369    	62.55257
750.0000      	13333.3    	63.14770
752.0000      	13297.9    	63.30967
754.0000      	13262.6    	63.56741
756.0000      	13227.5    	63.89697
758.0000      	13192.6    	64.10121
760.0000      	13157.9    	63.96277
762.0000      	13123.4    	64.49920
764.0000      	13089    	64.20595
766.0000      	13054.8    	63.91587
768.0000      	13020.8    	63.91629
770.0000      	12987    	64.32546
772.0000      	12953.4    	64.25947
774.0000      	12919.9    	64.11681
776.0000      	12886.6    	64.97658
778.0000      	12853.5    	64.78333
780.0000      	12820.5    	64.60567
782.0000      	12787.7    	64.67923
784.0000      	12755.1    	64.02651
786.0000      	12722.6    	64.32985
788.0000      	12690.4    	64.43362
790.0000      	12658.2    	64.14080
792.0000      	12626.3    	64.02745
794.0000      	12594.5    	64.06858
796.0000      	12562.8    	64.17686
798.0000      	12531.3    	64.49721
800.0000      	12500    	64.01265