File: data/Reflectance_measurements/Reflectance_2019_material/13_white/13_w_1.txt
Unit Serial No : 240-IM0P2424-EU
Integration Time : 10 ms
Time Average: 10
Binning Average: 2
FFT Smoothing: 0%
Project Name : RPS900-R
Sample Name :  SM240-IMOP2424-EU
Measurement No : 1
Measurement Time : 06/03/2019   14:54:00

Wavelength(nm)	Wavenumber(1/cm)	Transmittance(%)
300.0000      	33333.3    	3.14805
302.0000      	33112.6    	2.36579
304.0000      	32894.7    	1.78213
306.0000      	32679.7    	2.44430
308.0000      	32467.5    	2.38040
310.0000      	32258.1    	1.50799
312.0000      	32051.3    	0.84406
314.0000      	31847.1    	1.08939
316.0000      	31645.6    	2.19968
318.0000      	31446.5    	1.44273
320.0000      	31250    	1.20557
322.0000      	31055.9    	0.86491
324.0000      	30864.2    	0.91300
326.0000      	30674.8    	1.48419
328.0000      	30487.8    	1.11004
330.0000      	30303    	0.72441
332.0000      	30120.5    	1.05042
334.0000      	29940.1    	1.61875
336.0000      	29761.9    	0.79903
338.0000      	29585.8    	1.11488
340.0000      	29411.8    	0.79269
342.0000      	29239.8    	0.90558
344.0000      	29069.8    	0.79045
346.0000      	28901.7    	0.24150
348.0000      	28735.6    	0.73574
350.0000      	28571.4    	1.16719
352.0000      	28409.1    	0.60050
354.0000      	28248.6    	1.25325
356.0000      	28089.9    	1.03184
358.0000      	27933    	0.54217
360.0000      	27777.8    	0.82201
362.0000      	27624.3    	0.57987
364.0000      	27472.5    	0.74606
366.0000      	27322.4    	0.93236
368.0000      	27173.9    	0.53152
370.0000      	27027    	0.89217
372.0000      	26881.7    	0.94436
374.0000      	26738    	0.71779
376.0000      	26595.7    	0.78149
378.0000      	26455    	0.66994
380.0000      	26315.8    	0.69161
382.0000      	26178    	0.79970
384.0000      	26041.7    	0.69171
386.0000      	25906.7    	0.51567
388.0000      	25773.2    	0.68723
390.0000      	25641    	0.62455
392.0000      	25510.2    	0.59845
394.0000      	25380.7    	0.76891
396.0000      	25252.5    	0.65929
398.0000      	25125.6    	0.62963
400.0000      	25000    	0.63034
402.0000      	24875.6    	0.70099
404.0000      	24752.5    	0.79535
406.0000      	24630.5    	0.71180
408.0000      	24509.8    	0.52513
410.0000      	24390.2    	0.74696
412.0000      	24271.8    	0.64482
414.0000      	24154.6    	0.61655
416.0000      	24038.5    	0.72058
418.0000      	23923.4    	0.69097
420.0000      	23809.5    	0.66823
422.0000      	23696.7    	0.70196
424.0000      	23584.9    	0.64240
426.0000      	23474.2    	0.69213
428.0000      	23364.5    	0.81490
430.0000      	23255.8    	0.67582
432.0000      	23148.1    	0.67522
434.0000      	23041.5    	0.69808
436.0000      	22935.8    	0.57712
438.0000      	22831.1    	0.69229
440.0000      	22727.3    	0.68412
442.0000      	22624.4    	0.63270
444.0000      	22522.5    	0.86797
446.0000      	22421.5    	0.65103
448.0000      	22321.4    	0.57887
450.0000      	22222.2    	0.65902
452.0000      	22123.9    	0.58963
454.0000      	22026.4    	0.71074
456.0000      	21929.8    	0.70331
458.0000      	21834.1    	0.58816
460.0000      	21739.1    	0.71631
462.0000      	21645    	0.64323
464.0000      	21551.7    	0.59411
466.0000      	21459.2    	0.66058
468.0000      	21367.5    	0.61698
470.0000      	21276.6    	0.59477
472.0000      	21186.4    	0.63402
474.0000      	21097    	0.58273
476.0000      	21008.4    	0.54610
478.0000      	20920.5    	0.62039
480.0000      	20833.3    	0.62268
482.0000      	20746.9    	0.66141
484.0000      	20661.2    	0.65692
486.0000      	20576.1    	0.62877
488.0000      	20491.8    	0.61020
490.0000      	20408.2    	0.64083
492.0000      	20325.2    	0.59859
494.0000      	20242.9    	0.62472
496.0000      	20161.3    	0.64427
498.0000      	20080.3    	0.62112
500.0000      	20000    	0.65294
502.0000      	19920.3    	0.65129
504.0000      	19841.3    	0.64194
506.0000      	19762.8    	0.63975
508.0000      	19685    	0.63539
510.0000      	19607.8    	0.57101
512.0000      	19531.2    	0.63334
514.0000      	19455.3    	0.62778
516.0000      	19379.8    	0.60259
518.0000      	19305    	0.61438
520.0000      	19230.8    	0.63382
522.0000      	19157.1    	0.65463
524.0000      	19084    	0.67102
526.0000      	19011.4    	0.62218
528.0000      	18939.4    	0.62170
530.0000      	18867.9    	0.66444
532.0000      	18797    	0.59695
534.0000      	18726.6    	0.63446
536.0000      	18656.7    	0.65411
538.0000      	18587.4    	0.60317
540.0000      	18518.5    	0.61778
542.0000      	18450.2    	0.62070
544.0000      	18382.4    	0.60232
546.0000      	18315    	0.62566
548.0000      	18248.2    	0.62329
550.0000      	18181.8    	0.61301
552.0000      	18115.9    	0.64320
554.0000      	18050.5    	0.60705
556.0000      	17985.6    	0.59538
558.0000      	17921.1    	0.65988
560.0000      	17857.1    	0.63006
562.0000      	17793.6    	0.61041
564.0000      	17730.5    	0.65429
566.0000      	17667.8    	0.65868
568.0000      	17605.6    	0.62326
570.0000      	17543.9    	0.69308
572.0000      	17482.5    	0.61707
574.0000      	17421.6    	0.60328
576.0000      	17361.1    	0.64956
578.0000      	17301    	0.60701
580.0000      	17241.4    	0.64623
582.0000      	17182.1    	0.68576
584.0000      	17123.3    	0.59188
586.0000      	17064.8    	0.62911
588.0000      	17006.8    	0.65313
590.0000      	16949.2    	0.62337
592.0000      	16891.9    	0.67695
594.0000      	16835    	0.64624
596.0000      	16778.5    	0.58733
598.0000      	16722.4    	0.65823
600.0000      	16666.7    	0.65026
602.0000      	16611.3    	0.66516
604.0000      	16556.3    	0.68765
606.0000      	16501.7    	0.66087
608.0000      	16447.4    	0.61340
610.0000      	16393.4    	0.64205
612.0000      	16339.9    	0.63731
614.0000      	16286.6    	0.66945
616.0000      	16233.8    	0.67403
618.0000      	16181.2    	0.65593
620.0000      	16129    	0.70278
622.0000      	16077.2    	0.70529
624.0000      	16025.6    	0.61032
626.0000      	15974.4    	0.66893
628.0000      	15923.6    	0.66643
630.0000      	15873    	0.63682
632.0000      	15822.8    	0.62295
634.0000      	15772.9    	0.66101
636.0000      	15723.3    	0.67217
638.0000      	15674    	0.66221
640.0000      	15625    	0.63933
642.0000      	15576.3    	0.63769
644.0000      	15528    	0.62701
646.0000      	15479.9    	0.64185
648.0000      	15432.1    	0.65425
650.0000      	15384.6    	0.70532
652.0000      	15337.4    	0.75279
654.0000      	15290.5    	0.67704
656.0000      	15243.9    	0.71527
658.0000      	15197.6    	0.73681
660.0000      	15151.5    	0.73696
662.0000      	15105.7    	0.72938
664.0000      	15060.2    	0.67098
666.0000      	15015    	0.64909
668.0000      	14970.1    	0.66841
670.0000      	14925.4    	0.64078
672.0000      	14881    	0.61822
674.0000      	14836.8    	0.69809
676.0000      	14792.9    	0.63131
678.0000      	14749.3    	0.64898
680.0000      	14705.9    	0.72537
682.0000      	14662.8    	0.62849
684.0000      	14619.9    	0.67019
686.0000      	14577.3    	0.76184
688.0000      	14534.9    	0.72389
690.0000      	14492.8    	0.75503
692.0000      	14450.9    	0.79880
694.0000      	14409.2    	0.69452
696.0000      	14367.8    	0.65923
698.0000      	14326.6    	0.80958
700.0000      	14285.7    	0.73577
702.0000      	14245    	0.72472
704.0000      	14204.5    	0.86516
706.0000      	14164.3    	0.75672
708.0000      	14124.3    	0.78810
710.0000      	14084.5    	0.82162
712.0000      	14044.9    	0.69691
714.0000      	14005.6    	0.75409
716.0000      	13966.5    	0.72565
718.0000      	13927.6    	0.72090
720.0000      	13888.9    	0.80313
722.0000      	13850.4    	0.81586
724.0000      	13812.2    	0.82178
726.0000      	13774.1    	0.90441
728.0000      	13736.3    	0.87847
730.0000      	13698.6    	0.76100
732.0000      	13661.2    	0.94775
734.0000      	13624    	0.84086
736.0000      	13587    	0.76040
738.0000      	13550.1    	0.99392
740.0000      	13513.5    	0.84547
742.0000      	13477.1    	0.86909
744.0000      	13440.9    	1.01091
746.0000      	13404.8    	0.92762
748.0000      	13369    	0.94624
750.0000      	13333.3    	1.03777
752.0000      	13297.9    	0.93354
754.0000      	13262.6    	0.83894
756.0000      	13227.5    	0.94778
758.0000      	13192.6    	0.90539
760.0000      	13157.9    	0.91248
762.0000      	13123.4    	0.97088
764.0000      	13089    	0.90809
766.0000      	13054.8    	0.80140
768.0000      	13020.8    	0.91155
770.0000      	12987    	0.84297
772.0000      	12953.4    	0.91105
774.0000      	12919.9    	0.85124
776.0000      	12886.6    	0.91478
778.0000      	12853.5    	0.92058
780.0000      	12820.5    	1.34014
782.0000      	12787.7    	1.02535
784.0000      	12755.1    	0.73752
786.0000      	12722.6    	0.93540
788.0000      	12690.4    	1.01029
790.0000      	12658.2    	1.04592
792.0000      	12626.3    	0.90868
794.0000      	12594.5    	1.13810
796.0000      	12562.8    	1.00005
798.0000      	12531.3    	1.21843
800.0000      	12500    	1.16992