File: data/Reflectance_measurements/Reflectance_2019_material/13_white/13_w_2.txt
Unit Serial No : 240-IM0P2424-EU
Integration Time : 10 ms
Time Average: 10
Binning Average: 2
FFT Smoothing: 0%
Project Name : RPS900-R
Sample Name :  SM240-IMOP2424-EU
Measurement No : 1
Measurement Time : 06/03/2019   14:54:15

Wavelength(nm)	Wavenumber(1/cm)	Transmittance(%)
300.0000      	33333.3    	16.86610
302.0000      	33112.6    	16.92407
304.0000      	32894.7    	14.90215
306.0000      	32679.7    	14.64417
308.0000      	32467.5    	14.38986
310.0000      	32258.1    	12.23478
312.0000      	32051.3    	12.42896
314.0000      	31847.1    	11.79326
316.0000      	31645.6    	12.09150
318.0000      	31446.5    	10.74112
320.0000      	31250    	10.98701
322.0000      	31055.9    	10.54973
324.0000      	30864.2    	9.31964
326.0000      	30674.8    	9.84160
328.0000      	30487.8    	9.32169
330.0000      	30303    	9.23843
332.0000      	30120.5    	9.23732
334.0000      	29940.1    	9.29120
336.0000      	29761.9    	9.10201
338.0000      	29585.8    	9.48820
340.0000      	29411.8    	9.47590
342.0000      	29239.8    	9.91313
344.0000      	29069.8    	9.98372
346.0000      	28901.7    	9.86085
348.0000      	28735.6    	9.91118
350.0000      	28571.4    	10.52163
352.0000      	28409.1    	10.75431
354.0000      	28248.6    	11.44017
356.0000      	28089.9    	11.90483
358.0000      	27933    	12.54130
360.0000      	27777.8    	13.22416
362.0000      	27624.3    	13.37133
364.0000      	27472.5    	13.81964
366.0000      	27322.4    	14.41558
368.0000      	27173.9    	15.19448
370.0000      	27027    	15.97667
372.0000      	26881.7    	16.47970
374.0000      	26738    	17.00304
376.0000      	26595.7    	18.06911
378.0000      	26455    	19.03588
380.0000      	26315.8    	20.12366
382.0000      	26178    	20.73624
384.0000      	26041.7    	21.95156
386.0000      	25906.7    	23.01428
388.0000      	25773.2    	24.03216
390.0000      	25641    	25.26584
392.0000      	25510.2    	26.09253
394.0000      	25380.7    	27.47808
396.0000      	25252.5    	28.62580
398.0000      	25125.6    	30.29405
400.0000      	25000    	32.20640
402.0000      	24875.6    	33.84621
404.0000      	24752.5    	36.22946
406.0000      	24630.5    	38.84342
408.0000      	24509.8    	41.97799
410.0000      	24390.2    	44.79142
412.0000      	24271.8    	47.24039
414.0000      	24154.6    	50.44533
416.0000      	24038.5    	52.56385
418.0000      	23923.4    	54.16981
420.0000      	23809.5    	55.27232
422.0000      	23696.7    	56.17886
424.0000      	23584.9    	57.27813
426.0000      	23474.2    	58.32897
428.0000      	23364.5    	59.36882
430.0000      	23255.8    	60.04973
432.0000      	23148.1    	61.24225
434.0000      	23041.5    	62.28815
436.0000      	22935.8    	63.23481
438.0000      	22831.1    	63.64058
440.0000      	22727.3    	63.81487
442.0000      	22624.4    	63.49976
444.0000      	22522.5    	63.55959
446.0000      	22421.5    	63.31765
448.0000      	22321.4    	62.59184
450.0000      	22222.2    	61.52848
452.0000      	22123.9    	61.68079
454.0000      	22026.4    	61.79851
456.0000      	21929.8    	61.76901
458.0000      	21834.1    	61.54221
460.0000      	21739.1    	61.53994
462.0000      	21645    	61.35859
464.0000      	21551.7    	61.48431
466.0000      	21459.2    	61.69439
468.0000      	21367.5    	61.63363
470.0000      	21276.6    	61.75954
472.0000      	21186.4    	62.15752
474.0000      	21097    	62.79151
476.0000      	21008.4    	63.08732
478.0000      	20920.5    	63.23335
480.0000      	20833.3    	63.35238
482.0000      	20746.9    	63.46162
484.0000      	20661.2    	63.65911
486.0000      	20576.1    	63.86758
488.0000      	20491.8    	64.28197
490.0000      	20408.2    	64.47914
492.0000      	20325.2    	64.83806
494.0000      	20242.9    	65.04261
496.0000      	20161.3    	65.30512
498.0000      	20080.3    	65.58257
500.0000      	20000    	65.65965
502.0000      	19920.3    	65.54843
504.0000      	19841.3    	65.70374
506.0000      	19762.8    	65.40936
508.0000      	19685    	65.14807
510.0000      	19607.8    	64.74706
512.0000      	19531.2    	64.05373
514.0000      	19455.3    	63.53618
516.0000      	19379.8    	62.90233
518.0000      	19305    	61.98779
520.0000      	19230.8    	61.30869
522.0000      	19157.1    	60.41489
524.0000      	19084    	59.46690
526.0000      	19011.4    	58.71810
528.0000      	18939.4    	58.00447
530.0000      	18867.9    	57.52566
532.0000      	18797    	56.98724
534.0000      	18726.6    	56.70478
536.0000      	18656.7    	56.29654
538.0000      	18587.4    	56.08216
540.0000      	18518.5    	55.92802
542.0000      	18450.2    	55.80573
544.0000      	18382.4    	55.79773
546.0000      	18315    	55.56455
548.0000      	18248.2    	55.46999
550.0000      	18181.8    	55.23249
552.0000      	18115.9    	54.74517
554.0000      	18050.5    	54.03983
556.0000      	17985.6    	53.22049
558.0000      	17921.1    	52.67376
560.0000      	17857.1    	51.75352
562.0000      	17793.6    	50.85143
564.0000      	17730.5    	50.21243
566.0000      	17667.8    	49.47681
568.0000      	17605.6    	48.83182
570.0000      	17543.9    	48.60516
572.0000      	17482.5    	48.68490
574.0000      	17421.6    	49.03291
576.0000      	17361.1    	49.44139
578.0000      	17301    	50.50198
580.0000      	17241.4    	51.85339
582.0000      	17182.1    	53.01548
584.0000      	17123.3    	54.31067
586.0000      	17064.8    	55.83326
588.0000      	17006.8    	56.65701
590.0000      	16949.2    	57.63680
592.0000      	16891.9    	58.55350
594.0000      	16835    	58.88549
596.0000      	16778.5    	59.41808
598.0000      	16722.4    	59.71626
600.0000      	16666.7    	59.82729
602.0000      	16611.3    	60.07182
604.0000      	16556.3    	59.91662
606.0000      	16501.7    	60.06023
608.0000      	16447.4    	59.98719
610.0000      	16393.4    	60.07483
612.0000      	16339.9    	60.15558
614.0000      	16286.6    	60.30985
616.0000      	16233.8    	60.04668
618.0000      	16181.2    	60.01654
620.0000      	16129    	60.03813
622.0000      	16077.2    	59.89742
624.0000      	16025.6    	59.91669
626.0000      	15974.4    	60.04014
628.0000      	15923.6    	60.44913
630.0000      	15873    	60.42197
632.0000      	15822.8    	60.60525
634.0000      	15772.9    	60.87932
636.0000      	15723.3    	61.33289
638.0000      	15674    	61.66827
640.0000      	15625    	62.15181
642.0000      	15576.3    	62.63224
644.0000      	15528    	63.46046
646.0000      	15479.9    	64.07137
648.0000      	15432.1    	64.56281
650.0000      	15384.6    	65.41525
652.0000      	15337.4    	66.06306
654.0000      	15290.5    	66.70605
656.0000      	15243.9    	67.50035
658.0000      	15197.6    	67.92301
660.0000      	15151.5    	68.76170
662.0000      	15105.7    	69.37402
664.0000      	15060.2    	69.54087
666.0000      	15015    	70.09141
668.0000      	14970.1    	70.24295
670.0000      	14925.4    	70.26170
672.0000      	14881    	70.39649
674.0000      	14836.8    	70.36981
676.0000      	14792.9    	70.15630
678.0000      	14749.3    	69.97183
680.0000      	14705.9    	69.93182
682.0000      	14662.8    	69.55660
684.0000      	14619.9    	69.17735
686.0000      	14577.3    	68.91106
688.0000      	14534.9    	68.48494
690.0000      	14492.8    	68.42575
692.0000      	14450.9    	68.41559
694.0000      	14409.2    	68.44463
696.0000      	14367.8    	68.42551
698.0000      	14326.6    	68.28089
700.0000      	14285.7    	68.13501
702.0000      	14245    	68.56040
704.0000      	14204.5    	68.21265
706.0000      	14164.3    	68.00588
708.0000      	14124.3    	67.92829
710.0000      	14084.5    	67.83035
712.0000      	14044.9    	67.74581
714.0000      	14005.6    	67.57671
716.0000      	13966.5    	67.50334
718.0000      	13927.6    	67.88445
720.0000      	13888.9    	68.09338
722.0000      	13850.4    	68.59658
724.0000      	13812.2    	68.97343
726.0000      	13774.1    	69.24446
728.0000      	13736.3    	69.24001
730.0000      	13698.6    	70.17767
732.0000      	13661.2    	70.29660
734.0000      	13624    	70.79836
736.0000      	13587    	71.53909
738.0000      	13550.1    	72.19936
740.0000      	13513.5    	72.38042
742.0000      	13477.1    	73.04273
744.0000      	13440.9    	74.63403
746.0000      	13404.8    	75.34030
748.0000      	13369    	76.09113
750.0000      	13333.3    	77.24875
752.0000      	13297.9    	77.66106
754.0000      	13262.6    	78.85117
756.0000      	13227.5    	79.27261
758.0000      	13192.6    	80.00068
760.0000      	13157.9    	81.39217
762.0000      	13123.4    	81.91561
764.0000      	13089    	82.08450
766.0000      	13054.8    	82.27613
768.0000      	13020.8    	82.47894
770.0000      	12987    	83.12418
772.0000      	12953.4    	83.86373
774.0000      	12919.9    	83.93262
776.0000      	12886.6    	83.44100
778.0000      	12853.5    	83.79086
780.0000      	12820.5    	83.92886
782.0000      	12787.7    	83.58936
784.0000      	12755.1    	83.90718
786.0000      	12722.6    	84.33150
788.0000      	12690.4    	84.30024
790.0000      	12658.2    	84.19263
792.0000      	12626.3    	83.30376
794.0000      	12594.5    	83.32207
796.0000      	12562.8    	83.83633
798.0000      	12531.3    	83.55960
800.0000      	12500    	83.62579