File: data/Reflectance_measurements/Reflectance_2019_material/25/25_1.txt
Unit Serial No : 240-IM0P2424-EU
Integration Time : 10 ms
Time Average: 10
Binning Average: 2
FFT Smoothing: 0%
Project Name : RPS900-R
Sample Name :  SM240-IMOP2424-EU
Measurement No : 1
Measurement Time : 06/03/2019   14:48:56

Wavelength(nm)	Wavenumber(1/cm)	Transmittance(%)
300.0000      	33333.3    	14.46003
302.0000      	33112.6    	14.40894
304.0000      	32894.7    	12.94143
306.0000      	32679.7    	12.24147
308.0000      	32467.5    	12.17674
310.0000      	32258.1    	11.05004
312.0000      	32051.3    	10.93156
314.0000      	31847.1    	10.25964
316.0000      	31645.6    	9.98638
318.0000      	31446.5    	9.35618
320.0000      	31250    	9.18949
322.0000      	31055.9    	8.68290
324.0000      	30864.2    	8.65603
326.0000      	30674.8    	8.45884
328.0000      	30487.8    	7.75403
330.0000      	30303    	8.26989
332.0000      	30120.5    	8.39090
334.0000      	29940.1    	8.49974
336.0000      	29761.9    	8.21112
338.0000      	29585.8    	8.48606
340.0000      	29411.8    	8.21986
342.0000      	29239.8    	8.60784
344.0000      	29069.8    	8.58738
346.0000      	28901.7    	8.61447
348.0000      	28735.6    	8.55826
350.0000      	28571.4    	9.12931
352.0000      	28409.1    	9.11118
354.0000      	28248.6    	9.56357
356.0000      	28089.9    	10.11906
358.0000      	27933    	10.40594
360.0000      	27777.8    	10.81641
362.0000      	27624.3    	11.03188
364.0000      	27472.5    	11.71064
366.0000      	27322.4    	11.97850
368.0000      	27173.9    	12.16349
370.0000      	27027    	12.57381
372.0000      	26881.7    	13.16130
374.0000      	26738    	13.72749
376.0000      	26595.7    	14.12721
378.0000      	26455    	14.98977
380.0000      	26315.8    	15.78853
382.0000      	26178    	16.50207
384.0000      	26041.7    	17.24447
386.0000      	25906.7    	18.09992
388.0000      	25773.2    	18.86665
390.0000      	25641    	19.77110
392.0000      	25510.2    	20.35871
394.0000      	25380.7    	21.57599
396.0000      	25252.5    	22.34615
398.0000      	25125.6    	23.65341
400.0000      	25000    	24.88440
402.0000      	24875.6    	25.99434
404.0000      	24752.5    	27.52450
406.0000      	24630.5    	29.38735
408.0000      	24509.8    	31.65254
410.0000      	24390.2    	33.48523
412.0000      	24271.8    	35.05088
414.0000      	24154.6    	36.95874
416.0000      	24038.5    	38.49958
418.0000      	23923.4    	39.22796
420.0000      	23809.5    	39.88044
422.0000      	23696.7    	40.58841
424.0000      	23584.9    	41.02437
426.0000      	23474.2    	41.91636
428.0000      	23364.5    	42.64966
430.0000      	23255.8    	42.90338
432.0000      	23148.1    	43.67198
434.0000      	23041.5    	44.20166
436.0000      	22935.8    	44.95832
438.0000      	22831.1    	45.20462
440.0000      	22727.3    	45.41011
442.0000      	22624.4    	45.42145
444.0000      	22522.5    	45.58989
446.0000      	22421.5    	45.65818
448.0000      	22321.4    	45.08027
450.0000      	22222.2    	44.63785
452.0000      	22123.9    	44.69186
454.0000      	22026.4    	44.84078
456.0000      	21929.8    	44.94262
458.0000      	21834.1    	44.97678
460.0000      	21739.1    	45.18666
462.0000      	21645    	45.31864
464.0000      	21551.7    	45.43812
466.0000      	21459.2    	45.65736
468.0000      	21367.5    	45.91903
470.0000      	21276.6    	46.14757
472.0000      	21186.4    	46.60463
474.0000      	21097    	47.01458
476.0000      	21008.4    	47.37768
478.0000      	20920.5    	47.78692
480.0000      	20833.3    	48.06097
482.0000      	20746.9    	48.42634
484.0000      	20661.2    	48.86438
486.0000      	20576.1    	49.23585
488.0000      	20491.8    	49.59115
490.0000      	20408.2    	50.10240
492.0000      	20325.2    	50.39175
494.0000      	20242.9    	50.64183
496.0000      	20161.3    	51.00764
498.0000      	20080.3    	51.41926
500.0000      	20000    	51.52263
502.0000      	19920.3    	51.67558
504.0000      	19841.3    	51.66153
506.0000      	19762.8    	51.42523
508.0000      	19685    	51.17597
510.0000      	19607.8    	50.68465
512.0000      	19531.2    	50.12165
514.0000      	19455.3    	49.49898
516.0000      	19379.8    	48.62661
518.0000      	19305    	47.65115
520.0000      	19230.8    	46.86687
522.0000      	19157.1    	45.67804
524.0000      	19084    	44.53291
526.0000      	19011.4    	43.67909
528.0000      	18939.4    	42.69730
530.0000      	18867.9    	42.09195
532.0000      	18797    	41.40315
534.0000      	18726.6    	41.12543
536.0000      	18656.7    	40.67672
538.0000      	18587.4    	40.39733
540.0000      	18518.5    	40.20428
542.0000      	18450.2    	40.13977
544.0000      	18382.4    	40.15405
546.0000      	18315    	40.04171
548.0000      	18248.2    	39.87512
550.0000      	18181.8    	39.49756
552.0000      	18115.9    	39.14827
554.0000      	18050.5    	38.48539
556.0000      	17985.6    	37.81044
558.0000      	17921.1    	37.19875
560.0000      	17857.1    	36.33713
562.0000      	17793.6    	35.52258
564.0000      	17730.5    	34.96027
566.0000      	17667.8    	34.35134
568.0000      	17605.6    	33.81868
570.0000      	17543.9    	33.68936
572.0000      	17482.5    	33.81458
574.0000      	17421.6    	34.13718
576.0000      	17361.1    	34.52612
578.0000      	17301    	35.40054
580.0000      	17241.4    	36.49237
582.0000      	17182.1    	37.49203
584.0000      	17123.3    	38.61320
586.0000      	17064.8    	39.75649
588.0000      	17006.8    	40.52777
590.0000      	16949.2    	41.43174
592.0000      	16891.9    	42.15184
594.0000      	16835    	42.49596
596.0000      	16778.5    	43.05207
598.0000      	16722.4    	43.18831
600.0000      	16666.7    	43.32499
602.0000      	16611.3    	43.48993
604.0000      	16556.3    	43.26128
606.0000      	16501.7    	43.33957
608.0000      	16447.4    	43.23652
610.0000      	16393.4    	43.16581
612.0000      	16339.9    	43.29674
614.0000      	16286.6    	43.20351
616.0000      	16233.8    	43.18193
618.0000      	16181.2    	43.14458
620.0000      	16129    	43.05194
622.0000      	16077.2    	43.04687
624.0000      	16025.6    	43.11395
626.0000      	15974.4    	43.05401
628.0000      	15923.6    	43.33089
630.0000      	15873    	43.38121
632.0000      	15822.8    	43.45134
634.0000      	15772.9    	43.64874
636.0000      	15723.3    	43.84482
638.0000      	15674    	43.90190
640.0000      	15625    	44.16354
642.0000      	15576.3    	44.34892
644.0000      	15528    	44.84962
646.0000      	15479.9    	45.23181
648.0000      	15432.1    	45.52584
650.0000      	15384.6    	46.05856
652.0000      	15337.4    	46.46779
654.0000      	15290.5    	46.79516
656.0000      	15243.9    	47.35551
658.0000      	15197.6    	47.70541
660.0000      	15151.5    	48.27346
662.0000      	15105.7    	48.74683
664.0000      	15060.2    	49.09045
666.0000      	15015    	49.15269
668.0000      	14970.1    	49.39717
670.0000      	14925.4    	49.35958
672.0000      	14881    	49.24675
674.0000      	14836.8    	49.18834
676.0000      	14792.9    	49.06852
678.0000      	14749.3    	49.01415
680.0000      	14705.9    	49.01161
682.0000      	14662.8    	48.85728
684.0000      	14619.9    	48.64084
686.0000      	14577.3    	48.17832
688.0000      	14534.9    	47.96251
690.0000      	14492.8    	47.83149
692.0000      	14450.9    	47.69566
694.0000      	14409.2    	47.48100
696.0000      	14367.8    	47.11951
698.0000      	14326.6    	46.88562
700.0000      	14285.7    	46.88792
702.0000      	14245    	46.82307
704.0000      	14204.5    	46.48013
706.0000      	14164.3    	45.97737
708.0000      	14124.3    	45.71777
710.0000      	14084.5    	45.67939
712.0000      	14044.9    	45.57566
714.0000      	14005.6    	45.47526
716.0000      	13966.5    	45.55818
718.0000      	13927.6    	45.58340
720.0000      	13888.9    	45.93903
722.0000      	13850.4    	46.21210
724.0000      	13812.2    	46.81458
726.0000      	13774.1    	47.39869
728.0000      	13736.3    	47.79142
730.0000      	13698.6    	48.21989
732.0000      	13661.2    	48.64689
734.0000      	13624    	49.45208
736.0000      	13587    	50.24580
738.0000      	13550.1    	51.09529
740.0000      	13513.5    	51.97237
742.0000      	13477.1    	52.91214
744.0000      	13440.9    	54.18326
746.0000      	13404.8    	55.34066
748.0000      	13369    	56.58134
750.0000      	13333.3    	57.61532
752.0000      	13297.9    	58.51713
754.0000      	13262.6    	60.35841
756.0000      	13227.5    	61.34176
758.0000      	13192.6    	62.63797
760.0000      	13157.9    	64.08526
762.0000      	13123.4    	64.80781
764.0000      	13089    	65.79604
766.0000      	13054.8    	66.14368
768.0000      	13020.8    	66.40958
770.0000      	12987    	66.71770
772.0000      	12953.4    	67.22752
774.0000      	12919.9    	67.41855
776.0000      	12886.6    	67.56989
778.0000      	12853.5    	67.52077
780.0000      	12820.5    	67.75503
782.0000      	12787.7    	67.77316
784.0000      	12755.1    	68.08434
786.0000      	12722.6    	67.95609
788.0000      	12690.4    	68.16071
790.0000      	12658.2    	68.40891
792.0000      	12626.3    	67.56121
794.0000      	12594.5    	67.67211
796.0000      	12562.8    	68.23897
798.0000      	12531.3    	68.22645
800.0000      	12500    	68.20702