File: data/Reflectance_measurements/Reflectance_2019_material/25/25_2 .txt
Unit Serial No : 240-IM0P2424-EU
Integration Time : 10 ms
Time Average: 10
Binning Average: 2
FFT Smoothing: 0%
Project Name : RPS900-R
Sample Name :  SM240-IMOP2424-EU
Measurement No : 1
Measurement Time : 06/03/2019   14:49:08

Wavelength(nm)	Wavenumber(1/cm)	Transmittance(%)
300.0000      	33333.3    	14.35495
302.0000      	33112.6    	13.53454
304.0000      	32894.7    	13.78330
306.0000      	32679.7    	12.43282
308.0000      	32467.5    	12.54048
310.0000      	32258.1    	10.74104
312.0000      	32051.3    	10.23698
314.0000      	31847.1    	10.03934
316.0000      	31645.6    	10.50647
318.0000      	31446.5    	9.89313
320.0000      	31250    	9.33526
322.0000      	31055.9    	8.64820
324.0000      	30864.2    	8.49290
326.0000      	30674.8    	8.87026
328.0000      	30487.8    	8.76048
330.0000      	30303    	8.15398
332.0000      	30120.5    	8.29685
334.0000      	29940.1    	8.42942
336.0000      	29761.9    	8.05069
338.0000      	29585.8    	8.19700
340.0000      	29411.8    	8.34365
342.0000      	29239.8    	8.30183
344.0000      	29069.8    	8.12418
346.0000      	28901.7    	8.32919
348.0000      	28735.6    	8.57260
350.0000      	28571.4    	9.06949
352.0000      	28409.1    	9.11813
354.0000      	28248.6    	9.70323
356.0000      	28089.9    	10.26437
358.0000      	27933    	10.58533
360.0000      	27777.8    	11.10969
362.0000      	27624.3    	11.14559
364.0000      	27472.5    	11.32509
366.0000      	27322.4    	11.67879
368.0000      	27173.9    	12.27796
370.0000      	27027    	12.77670
372.0000      	26881.7    	13.11060
374.0000      	26738    	13.85267
376.0000      	26595.7    	14.45467
378.0000      	26455    	15.04134
380.0000      	26315.8    	16.08988
382.0000      	26178    	16.65917
384.0000      	26041.7    	17.47095
386.0000      	25906.7    	18.29241
388.0000      	25773.2    	19.04529
390.0000      	25641    	19.92488
392.0000      	25510.2    	20.51225
394.0000      	25380.7    	21.44404
396.0000      	25252.5    	22.48484
398.0000      	25125.6    	23.71139
400.0000      	25000    	25.10436
402.0000      	24875.6    	26.25074
404.0000      	24752.5    	27.93016
406.0000      	24630.5    	29.78867
408.0000      	24509.8    	31.71825
410.0000      	24390.2    	33.54847
412.0000      	24271.8    	35.11767
414.0000      	24154.6    	37.05301
416.0000      	24038.5    	38.18336
418.0000      	23923.4    	38.92398
420.0000      	23809.5    	39.66295
422.0000      	23696.7    	40.30190
424.0000      	23584.9    	41.20667
426.0000      	23474.2    	41.68204
428.0000      	23364.5    	42.33997
430.0000      	23255.8    	42.82222
432.0000      	23148.1    	43.64641
434.0000      	23041.5    	44.29102
436.0000      	22935.8    	44.76389
438.0000      	22831.1    	45.19058
440.0000      	22727.3    	45.37365
442.0000      	22624.4    	45.25861
444.0000      	22522.5    	45.26164
446.0000      	22421.5    	45.38050
448.0000      	22321.4    	45.02756
450.0000      	22222.2    	44.55068
452.0000      	22123.9    	44.66036
454.0000      	22026.4    	44.78799
456.0000      	21929.8    	44.95734
458.0000      	21834.1    	45.01804
460.0000      	21739.1    	44.97936
462.0000      	21645    	45.05418
464.0000      	21551.7    	45.31805
466.0000      	21459.2    	45.56302
468.0000      	21367.5    	45.60826
470.0000      	21276.6    	46.05511
472.0000      	21186.4    	46.44510
474.0000      	21097    	47.07607
476.0000      	21008.4    	47.49556
478.0000      	20920.5    	47.68335
480.0000      	20833.3    	47.96160
482.0000      	20746.9    	48.43195
484.0000      	20661.2    	48.87860
486.0000      	20576.1    	49.17763
488.0000      	20491.8    	49.50024
490.0000      	20408.2    	49.92075
492.0000      	20325.2    	50.27007
494.0000      	20242.9    	50.71939
496.0000      	20161.3    	50.96134
498.0000      	20080.3    	51.28064
500.0000      	20000    	51.41243
502.0000      	19920.3    	51.46345
504.0000      	19841.3    	51.49354
506.0000      	19762.8    	51.24831
508.0000      	19685    	51.02533
510.0000      	19607.8    	50.52038
512.0000      	19531.2    	49.88823
514.0000      	19455.3    	49.24030
516.0000      	19379.8    	48.37397
518.0000      	19305    	47.42267
520.0000      	19230.8    	46.64017
522.0000      	19157.1    	45.50735
524.0000      	19084    	44.49518
526.0000      	19011.4    	43.64006
528.0000      	18939.4    	42.67089
530.0000      	18867.9    	42.01002
532.0000      	18797    	41.40655
534.0000      	18726.6    	41.03466
536.0000      	18656.7    	40.59757
538.0000      	18587.4    	40.30241
540.0000      	18518.5    	40.21064
542.0000      	18450.2    	40.07174
544.0000      	18382.4    	40.08113
546.0000      	18315    	39.99668
548.0000      	18248.2    	39.89481
550.0000      	18181.8    	39.56281
552.0000      	18115.9    	39.08769
554.0000      	18050.5    	38.48876
556.0000      	17985.6    	37.76299
558.0000      	17921.1    	37.23683
560.0000      	17857.1    	36.39449
562.0000      	17793.6    	35.52656
564.0000      	17730.5    	34.98199
566.0000      	17667.8    	34.36746
568.0000      	17605.6    	33.86374
570.0000      	17543.9    	33.64567
572.0000      	17482.5    	33.71800
574.0000      	17421.6    	34.11964
576.0000      	17361.1    	34.49605
578.0000      	17301    	35.41691
580.0000      	17241.4    	36.50564
582.0000      	17182.1    	37.47484
584.0000      	17123.3    	38.58475
586.0000      	17064.8    	39.82882
588.0000      	17006.8    	40.50248
590.0000      	16949.2    	41.45151
592.0000      	16891.9    	42.14388
594.0000      	16835    	42.52827
596.0000      	16778.5    	42.86749
598.0000      	16722.4    	43.14823
600.0000      	16666.7    	43.13350
602.0000      	16611.3    	43.38468
604.0000      	16556.3    	43.26976
606.0000      	16501.7    	43.25756
608.0000      	16447.4    	43.20119
610.0000      	16393.4    	43.16726
612.0000      	16339.9    	43.20023
614.0000      	16286.6    	43.09849
616.0000      	16233.8    	43.10867
618.0000      	16181.2    	43.07172
620.0000      	16129    	43.16447
622.0000      	16077.2    	43.07712
624.0000      	16025.6    	43.09550
626.0000      	15974.4    	43.03970
628.0000      	15923.6    	43.25334
630.0000      	15873    	43.34164
632.0000      	15822.8    	43.32161
634.0000      	15772.9    	43.60854
636.0000      	15723.3    	43.83344
638.0000      	15674    	43.96148
640.0000      	15625    	44.20604
642.0000      	15576.3    	44.24976
644.0000      	15528    	44.75013
646.0000      	15479.9    	45.34704
648.0000      	15432.1    	45.58321
650.0000      	15384.6    	46.00818
652.0000      	15337.4    	46.47902
654.0000      	15290.5    	46.97801
656.0000      	15243.9    	47.51076
658.0000      	15197.6    	47.67560
660.0000      	15151.5    	48.20390
662.0000      	15105.7    	48.72876
664.0000      	15060.2    	48.90301
666.0000      	15015    	48.97210
668.0000      	14970.1    	49.10117
670.0000      	14925.4    	49.33250
672.0000      	14881    	49.24096
674.0000      	14836.8    	49.20013
676.0000      	14792.9    	49.21973
678.0000      	14749.3    	49.20101
680.0000      	14705.9    	48.77114
682.0000      	14662.8    	48.56887
684.0000      	14619.9    	48.27923
686.0000      	14577.3    	48.05868
688.0000      	14534.9    	47.76417
690.0000      	14492.8    	47.52859
692.0000      	14450.9    	47.28804
694.0000      	14409.2    	47.39455
696.0000      	14367.8    	47.24958
698.0000      	14326.6    	46.94622
700.0000      	14285.7    	46.58703
702.0000      	14245    	46.50793
704.0000      	14204.5    	46.22568
706.0000      	14164.3    	46.13228
708.0000      	14124.3    	45.82504
710.0000      	14084.5    	45.52932
712.0000      	14044.9    	45.37442
714.0000      	14005.6    	45.31223
716.0000      	13966.5    	45.37426
718.0000      	13927.6    	45.47927
720.0000      	13888.9    	45.92124
722.0000      	13850.4    	46.33499
724.0000      	13812.2    	46.73662
726.0000      	13774.1    	47.02953
728.0000      	13736.3    	47.33316
730.0000      	13698.6    	48.02183
732.0000      	13661.2    	48.40170
734.0000      	13624    	49.15348
736.0000      	13587    	49.96333
738.0000      	13550.1    	50.96997
740.0000      	13513.5    	51.70035
742.0000      	13477.1    	52.49406
744.0000      	13440.9    	54.17935
746.0000      	13404.8    	55.03384
748.0000      	13369    	56.08408
750.0000      	13333.3    	57.67990
752.0000      	13297.9    	58.55064
754.0000      	13262.6    	60.01973
756.0000      	13227.5    	61.14057
758.0000      	13192.6    	62.38762
760.0000      	13157.9    	63.99471
762.0000      	13123.4    	64.63708
764.0000      	13089    	65.30497
766.0000      	13054.8    	65.71037
768.0000      	13020.8    	66.38983
770.0000      	12987    	66.80383
772.0000      	12953.4    	67.19907
774.0000      	12919.9    	67.42030
776.0000      	12886.6    	67.36507
778.0000      	12853.5    	67.55700
780.0000      	12820.5    	67.70790
782.0000      	12787.7    	67.47231
784.0000      	12755.1    	67.81843
786.0000      	12722.6    	68.04028
788.0000      	12690.4    	68.04790
790.0000      	12658.2    	68.14933
792.0000      	12626.3    	67.36278
794.0000      	12594.5    	67.42112
796.0000      	12562.8    	67.54846
798.0000      	12531.3    	67.73647
800.0000      	12500    	67.53267