File: data/Reflectance_measurements/Reflectance_2019_material/50_white/50_white_2 .txt
Unit Serial No : 240-IM0P2424-EU
Integration Time : 10 ms
Time Average: 10
Binning Average: 2
FFT Smoothing: 0%
Project Name : RPS900-R
Sample Name :  SM240-IMOP2424-EU
Measurement No : 1
Measurement Time : 06/03/2019   14:42:47

Wavelength(nm)	Wavenumber(1/cm)	Transmittance(%)
300.0000      	33333.3    	13.63656
302.0000      	33112.6    	12.09227
304.0000      	32894.7    	12.59157
306.0000      	32679.7    	11.44612
308.0000      	32467.5    	10.31048
310.0000      	32258.1    	11.50713
312.0000      	32051.3    	9.88260
314.0000      	31847.1    	10.20880
316.0000      	31645.6    	9.40325
318.0000      	31446.5    	8.74568
320.0000      	31250    	8.60542
322.0000      	31055.9    	9.41265
324.0000      	30864.2    	7.62687
326.0000      	30674.8    	9.07557
328.0000      	30487.8    	8.44123
330.0000      	30303    	7.25933
332.0000      	30120.5    	8.22978
334.0000      	29940.1    	8.13685
336.0000      	29761.9    	7.41083
338.0000      	29585.8    	7.84076
340.0000      	29411.8    	7.18074
342.0000      	29239.8    	8.02344
344.0000      	29069.8    	7.77212
346.0000      	28901.7    	7.58648
348.0000      	28735.6    	7.83973
350.0000      	28571.4    	7.88357
352.0000      	28409.1    	7.28756
354.0000      	28248.6    	8.06910
356.0000      	28089.9    	7.68906
358.0000      	27933    	8.00371
360.0000      	27777.8    	8.59174
362.0000      	27624.3    	8.46412
364.0000      	27472.5    	8.38745
366.0000      	27322.4    	8.57447
368.0000      	27173.9    	8.37715
370.0000      	27027    	8.97331
372.0000      	26881.7    	8.99965
374.0000      	26738    	9.05401
376.0000      	26595.7    	9.67817
378.0000      	26455    	9.84363
380.0000      	26315.8    	10.41809
382.0000      	26178    	10.89484
384.0000      	26041.7    	11.08214
386.0000      	25906.7    	11.48173
388.0000      	25773.2    	12.27584
390.0000      	25641    	12.48339
392.0000      	25510.2    	13.00984
394.0000      	25380.7    	13.54746
396.0000      	25252.5    	13.94526
398.0000      	25125.6    	14.99040
400.0000      	25000    	15.61791
402.0000      	24875.6    	16.23551
404.0000      	24752.5    	17.05099
406.0000      	24630.5    	17.67835
408.0000      	24509.8    	18.51357
410.0000      	24390.2    	19.43366
412.0000      	24271.8    	19.80904
414.0000      	24154.6    	20.70551
416.0000      	24038.5    	21.28075
418.0000      	23923.4    	21.45526
420.0000      	23809.5    	21.90685
422.0000      	23696.7    	22.11507
424.0000      	23584.9    	22.41386
426.0000      	23474.2    	22.99724
428.0000      	23364.5    	23.08647
430.0000      	23255.8    	23.21557
432.0000      	23148.1    	23.64517
434.0000      	23041.5    	23.94304
436.0000      	22935.8    	24.37396
438.0000      	22831.1    	24.79278
440.0000      	22727.3    	24.92425
442.0000      	22624.4    	25.06790
444.0000      	22522.5    	25.24433
446.0000      	22421.5    	25.22349
448.0000      	22321.4    	25.41615
450.0000      	22222.2    	25.22443
452.0000      	22123.9    	25.44444
454.0000      	22026.4    	25.89787
456.0000      	21929.8    	25.96266
458.0000      	21834.1    	26.18706
460.0000      	21739.1    	26.76062
462.0000      	21645    	26.90657
464.0000      	21551.7    	26.99561
466.0000      	21459.2    	27.51768
468.0000      	21367.5    	27.74201
470.0000      	21276.6    	28.13478
472.0000      	21186.4    	28.56567
474.0000      	21097    	29.16549
476.0000      	21008.4    	29.61280
478.0000      	20920.5    	30.00816
480.0000      	20833.3    	30.57947
482.0000      	20746.9    	31.18447
484.0000      	20661.2    	31.70189
486.0000      	20576.1    	32.11400
488.0000      	20491.8    	32.78424
490.0000      	20408.2    	33.41595
492.0000      	20325.2    	33.89132
494.0000      	20242.9    	34.47556
496.0000      	20161.3    	34.77483
498.0000      	20080.3    	35.21787
500.0000      	20000    	35.59887
502.0000      	19920.3    	35.66460
504.0000      	19841.3    	35.71383
506.0000      	19762.8    	35.62396
508.0000      	19685    	35.31831
510.0000      	19607.8    	34.81556
512.0000      	19531.2    	33.95473
514.0000      	19455.3    	33.14108
516.0000      	19379.8    	32.14459
518.0000      	19305    	30.83550
520.0000      	19230.8    	29.80155
522.0000      	19157.1    	28.48565
524.0000      	19084    	27.26319
526.0000      	19011.4    	26.32710
528.0000      	18939.4    	25.41827
530.0000      	18867.9    	24.55563
532.0000      	18797    	23.80599
534.0000      	18726.6    	23.51385
536.0000      	18656.7    	23.05559
538.0000      	18587.4    	22.83306
540.0000      	18518.5    	22.82426
542.0000      	18450.2    	22.65763
544.0000      	18382.4    	22.69682
546.0000      	18315    	22.67592
548.0000      	18248.2    	22.47438
550.0000      	18181.8    	22.26667
552.0000      	18115.9    	22.03349
554.0000      	18050.5    	21.50226
556.0000      	17985.6    	20.87911
558.0000      	17921.1    	20.28025
560.0000      	17857.1    	19.45561
562.0000      	17793.6    	18.84997
564.0000      	17730.5    	18.27803
566.0000      	17667.8    	17.75694
568.0000      	17605.6    	17.60730
570.0000      	17543.9    	17.47930
572.0000      	17482.5    	17.49439
574.0000      	17421.6    	18.01315
576.0000      	17361.1    	18.45158
578.0000      	17301    	19.09145
580.0000      	17241.4    	20.23880
582.0000      	17182.1    	21.04259
584.0000      	17123.3    	22.22714
586.0000      	17064.8    	23.38997
588.0000      	17006.8    	24.16510
590.0000      	16949.2    	25.30417
592.0000      	16891.9    	26.08641
594.0000      	16835    	26.49427
596.0000      	16778.5    	26.90863
598.0000      	16722.4    	27.29050
600.0000      	16666.7    	27.34240
602.0000      	16611.3    	27.31496
604.0000      	16556.3    	27.32943
606.0000      	16501.7    	27.30863
608.0000      	16447.4    	27.20729
610.0000      	16393.4    	27.27858
612.0000      	16339.9    	27.26287
614.0000      	16286.6    	27.22233
616.0000      	16233.8    	27.29712
618.0000      	16181.2    	27.28942
620.0000      	16129    	27.32456
622.0000      	16077.2    	27.27309
624.0000      	16025.6    	27.16684
626.0000      	15974.4    	27.32935
628.0000      	15923.6    	27.53144
630.0000      	15873    	27.63017
632.0000      	15822.8    	27.76511
634.0000      	15772.9    	27.91901
636.0000      	15723.3    	27.96169
638.0000      	15674    	28.14345
640.0000      	15625    	28.48934
642.0000      	15576.3    	28.77968
644.0000      	15528    	29.29492
646.0000      	15479.9    	29.70402
648.0000      	15432.1    	30.10284
650.0000      	15384.6    	30.63619
652.0000      	15337.4    	31.07943
654.0000      	15290.5    	31.53368
656.0000      	15243.9    	32.18113
658.0000      	15197.6    	32.66840
660.0000      	15151.5    	33.32658
662.0000      	15105.7    	33.85181
664.0000      	15060.2    	34.07794
666.0000      	15015    	34.64222
668.0000      	14970.1    	34.88770
670.0000      	14925.4    	34.76140
672.0000      	14881    	34.95813
674.0000      	14836.8    	34.98381
676.0000      	14792.9    	34.71514
678.0000      	14749.3    	34.66318
680.0000      	14705.9    	34.62473
682.0000      	14662.8    	34.30621
684.0000      	14619.9    	34.14035
686.0000      	14577.3    	33.82440
688.0000      	14534.9    	33.46298
690.0000      	14492.8    	33.27078
692.0000      	14450.9    	32.96806
694.0000      	14409.2    	32.71780
696.0000      	14367.8    	32.46537
698.0000      	14326.6    	32.15426
700.0000      	14285.7    	31.77942
702.0000      	14245    	31.75268
704.0000      	14204.5    	31.39060
706.0000      	14164.3    	30.93758
708.0000      	14124.3    	30.71489
710.0000      	14084.5    	30.40999
712.0000      	14044.9    	30.21189
714.0000      	14005.6    	30.21949
716.0000      	13966.5    	30.25614
718.0000      	13927.6    	30.43709
720.0000      	13888.9    	31.12838
722.0000      	13850.4    	31.57320
724.0000      	13812.2    	32.06558
726.0000      	13774.1    	33.12223
728.0000      	13736.3    	33.44829
730.0000      	13698.6    	34.40079
732.0000      	13661.2    	35.10936
734.0000      	13624    	36.15893
736.0000      	13587    	37.21992
738.0000      	13550.1    	38.64056
740.0000      	13513.5    	40.39190
742.0000      	13477.1    	41.75720
744.0000      	13440.9    	44.42334
746.0000      	13404.8    	46.90489
748.0000      	13369    	48.94121
750.0000      	13333.3    	52.05548
752.0000      	13297.9    	54.50048
754.0000      	13262.6    	58.34589
756.0000      	13227.5    	61.00433
758.0000      	13192.6    	64.24355
760.0000      	13157.9    	68.18375
762.0000      	13123.4    	70.49753
764.0000      	13089    	73.20316
766.0000      	13054.8    	75.03043
768.0000      	13020.8    	77.20443
770.0000      	12987    	78.28772
772.0000      	12953.4    	79.71581
774.0000      	12919.9    	80.68737
776.0000      	12886.6    	80.85957
778.0000      	12853.5    	81.92532
780.0000      	12820.5    	82.23602
782.0000      	12787.7    	82.26826
784.0000      	12755.1    	83.19405
786.0000      	12722.6    	83.79408
788.0000      	12690.4    	84.05291
790.0000      	12658.2    	84.51183
792.0000      	12626.3    	83.83401
794.0000      	12594.5    	83.50686
796.0000      	12562.8    	84.43037
798.0000      	12531.3    	84.35515
800.0000      	12500    	84.13919