File: data/Reflectance_measurements/Reflectance_2019_material/25_white/25_white_1.txt
Unit Serial No : 240-IM0P2424-EU
Integration Time : 10 ms
Time Average: 10
Binning Average: 2
FFT Smoothing: 0%
Project Name : RPS900-R
Sample Name :  SM240-IMOP2424-EU
Measurement No : 1
Measurement Time : 06/03/2019   14:50:23

Wavelength(nm)	Wavenumber(1/cm)	Transmittance(%)
300.0000      	33333.3    	14.67876
302.0000      	33112.6    	15.75493
304.0000      	32894.7    	14.11494
306.0000      	32679.7    	12.65079
308.0000      	32467.5    	13.71917
310.0000      	32258.1    	11.11127
312.0000      	32051.3    	10.65064
314.0000      	31847.1    	11.46281
316.0000      	31645.6    	11.53989
318.0000      	31446.5    	10.83989
320.0000      	31250    	9.53422
322.0000      	31055.9    	9.05463
324.0000      	30864.2    	9.43409
326.0000      	30674.8    	9.12182
328.0000      	30487.8    	9.48402
330.0000      	30303    	9.28262
332.0000      	30120.5    	8.84316
334.0000      	29940.1    	9.14857
336.0000      	29761.9    	8.46530
338.0000      	29585.8    	8.46687
340.0000      	29411.8    	8.57305
342.0000      	29239.8    	8.87052
344.0000      	29069.8    	9.08471
346.0000      	28901.7    	9.26963
348.0000      	28735.6    	9.16827
350.0000      	28571.4    	9.43435
352.0000      	28409.1    	9.51600
354.0000      	28248.6    	9.83020
356.0000      	28089.9    	10.59303
358.0000      	27933    	11.03158
360.0000      	27777.8    	11.28275
362.0000      	27624.3    	11.77711
364.0000      	27472.5    	11.46444
366.0000      	27322.4    	12.22101
368.0000      	27173.9    	12.73551
370.0000      	27027    	13.10065
372.0000      	26881.7    	13.59108
374.0000      	26738    	14.13657
376.0000      	26595.7    	14.91350
378.0000      	26455    	15.78496
380.0000      	26315.8    	16.61269
382.0000      	26178    	17.14830
384.0000      	26041.7    	18.15215
386.0000      	25906.7    	18.78805
388.0000      	25773.2    	19.62562
390.0000      	25641    	20.92296
392.0000      	25510.2    	21.39419
394.0000      	25380.7    	22.67663
396.0000      	25252.5    	23.61934
398.0000      	25125.6    	24.94270
400.0000      	25000    	26.49967
402.0000      	24875.6    	27.67024
404.0000      	24752.5    	29.41262
406.0000      	24630.5    	31.38529
408.0000      	24509.8    	33.45705
410.0000      	24390.2    	35.56754
412.0000      	24271.8    	37.35433
414.0000      	24154.6    	39.45606
416.0000      	24038.5    	40.95401
418.0000      	23923.4    	41.96771
420.0000      	23809.5    	42.67945
422.0000      	23696.7    	43.61855
424.0000      	23584.9    	44.34732
426.0000      	23474.2    	44.98510
428.0000      	23364.5    	45.71966
430.0000      	23255.8    	46.15065
432.0000      	23148.1    	47.20593
434.0000      	23041.5    	47.80374
436.0000      	22935.8    	48.48611
438.0000      	22831.1    	48.82442
440.0000      	22727.3    	49.05024
442.0000      	22624.4    	49.33687
444.0000      	22522.5    	49.58535
446.0000      	22421.5    	49.24345
448.0000      	22321.4    	48.75066
450.0000      	22222.2    	48.22086
452.0000      	22123.9    	48.27554
454.0000      	22026.4    	48.59353
456.0000      	21929.8    	48.78820
458.0000      	21834.1    	48.82203
460.0000      	21739.1    	48.99865
462.0000      	21645    	49.04052
464.0000      	21551.7    	49.29785
466.0000      	21459.2    	49.45662
468.0000      	21367.5    	49.77718
470.0000      	21276.6    	50.25057
472.0000      	21186.4    	50.51312
474.0000      	21097    	51.15163
476.0000      	21008.4    	51.72052
478.0000      	20920.5    	51.97390
480.0000      	20833.3    	52.27315
482.0000      	20746.9    	52.82878
484.0000      	20661.2    	53.29717
486.0000      	20576.1    	53.64132
488.0000      	20491.8    	54.06492
490.0000      	20408.2    	54.54855
492.0000      	20325.2    	54.90852
494.0000      	20242.9    	55.40971
496.0000      	20161.3    	55.71091
498.0000      	20080.3    	56.16017
500.0000      	20000    	56.33598
502.0000      	19920.3    	56.39767
504.0000      	19841.3    	56.54979
506.0000      	19762.8    	56.28862
508.0000      	19685    	55.89484
510.0000      	19607.8    	55.35250
512.0000      	19531.2    	54.69029
514.0000      	19455.3    	54.00505
516.0000      	19379.8    	53.04035
518.0000      	19305    	51.82229
520.0000      	19230.8    	50.88548
522.0000      	19157.1    	49.57302
524.0000      	19084    	48.46549
526.0000      	19011.4    	47.53149
528.0000      	18939.4    	46.59719
530.0000      	18867.9    	45.80541
532.0000      	18797    	45.03242
534.0000      	18726.6    	44.64256
536.0000      	18656.7    	44.16092
538.0000      	18587.4    	43.83597
540.0000      	18518.5    	43.68520
542.0000      	18450.2    	43.74087
544.0000      	18382.4    	43.66048
546.0000      	18315    	43.47169
548.0000      	18248.2    	43.27084
550.0000      	18181.8    	43.05732
552.0000      	18115.9    	42.52922
554.0000      	18050.5    	41.72525
556.0000      	17985.6    	40.93222
558.0000      	17921.1    	40.24574
560.0000      	17857.1    	39.28810
562.0000      	17793.6    	38.37624
564.0000      	17730.5    	37.72079
566.0000      	17667.8    	36.89688
568.0000      	17605.6    	36.44090
570.0000      	17543.9    	36.24191
572.0000      	17482.5    	36.23615
574.0000      	17421.6    	36.62854
576.0000      	17361.1    	37.23263
578.0000      	17301    	38.20249
580.0000      	17241.4    	39.45642
582.0000      	17182.1    	40.70056
584.0000      	17123.3    	42.06626
586.0000      	17064.8    	43.50333
588.0000      	17006.8    	44.49039
590.0000      	16949.2    	45.59585
592.0000      	16891.9    	46.47523
594.0000      	16835    	46.94958
596.0000      	16778.5    	47.33727
598.0000      	16722.4    	47.69197
600.0000      	16666.7    	47.88734
602.0000      	16611.3    	48.03906
604.0000      	16556.3    	47.96113
606.0000      	16501.7    	47.97985
608.0000      	16447.4    	47.78211
610.0000      	16393.4    	47.78442
612.0000      	16339.9    	47.92945
614.0000      	16286.6    	47.92392
616.0000      	16233.8    	47.81610
618.0000      	16181.2    	47.71561
620.0000      	16129    	47.89038
622.0000      	16077.2    	47.71061
624.0000      	16025.6    	47.70512
626.0000      	15974.4    	47.78907
628.0000      	15923.6    	47.90779
630.0000      	15873    	48.12913
632.0000      	15822.8    	48.37487
634.0000      	15772.9    	48.64665
636.0000      	15723.3    	49.04859
638.0000      	15674    	49.22495
640.0000      	15625    	49.47615
642.0000      	15576.3    	49.84105
644.0000      	15528    	50.67299
646.0000      	15479.9    	51.25904
648.0000      	15432.1    	51.66799
650.0000      	15384.6    	52.38819
652.0000      	15337.4    	53.21878
654.0000      	15290.5    	53.78836
656.0000      	15243.9    	54.62666
658.0000      	15197.6    	55.02591
660.0000      	15151.5    	55.72451
662.0000      	15105.7    	56.42492
664.0000      	15060.2    	56.80490
666.0000      	15015    	57.25752
668.0000      	14970.1    	57.40233
670.0000      	14925.4    	57.56925
672.0000      	14881    	57.73223
674.0000      	14836.8    	57.75910
676.0000      	14792.9    	57.42312
678.0000      	14749.3    	57.25994
680.0000      	14705.9    	57.18926
682.0000      	14662.8    	56.92994
684.0000      	14619.9    	56.55817
686.0000      	14577.3    	56.23545
688.0000      	14534.9    	55.86972
690.0000      	14492.8    	55.79485
692.0000      	14450.9    	55.44231
694.0000      	14409.2    	55.33857
696.0000      	14367.8    	55.07620
698.0000      	14326.6    	54.97733
700.0000      	14285.7    	54.74624
702.0000      	14245    	54.66493
704.0000      	14204.5    	54.36346
706.0000      	14164.3    	54.02264
708.0000      	14124.3    	53.80949
710.0000      	14084.5    	53.59763
712.0000      	14044.9    	53.50297
714.0000      	14005.6    	53.30153
716.0000      	13966.5    	53.42448
718.0000      	13927.6    	53.62016
720.0000      	13888.9    	53.94415
722.0000      	13850.4    	54.73697
724.0000      	13812.2    	55.27177
726.0000      	13774.1    	55.82483
728.0000      	13736.3    	56.21693
730.0000      	13698.6    	56.88392
732.0000      	13661.2    	57.60531
734.0000      	13624    	58.57858
736.0000      	13587    	59.52919
738.0000      	13550.1    	60.67676
740.0000      	13513.5    	61.79613
742.0000      	13477.1    	62.78668
744.0000      	13440.9    	64.80210
746.0000      	13404.8    	66.55248
748.0000      	13369    	68.25225
750.0000      	13333.3    	70.15282
752.0000      	13297.9    	71.56246
754.0000      	13262.6    	73.87708
756.0000      	13227.5    	75.19873
758.0000      	13192.6    	77.10325
760.0000      	13157.9    	78.98932
762.0000      	13123.4    	80.40444
764.0000      	13089    	81.46387
766.0000      	13054.8    	81.81286
768.0000      	13020.8    	82.62682
770.0000      	12987    	83.05761
772.0000      	12953.4    	83.70487
774.0000      	12919.9    	84.19062
776.0000      	12886.6    	84.15505
778.0000      	12853.5    	84.54045
780.0000      	12820.5    	84.54601
782.0000      	12787.7    	84.81818
784.0000      	12755.1    	85.07162
786.0000      	12722.6    	85.14440
788.0000      	12690.4    	85.31320
790.0000      	12658.2    	85.74571
792.0000      	12626.3    	85.15577
794.0000      	12594.5    	85.05709
796.0000      	12562.8    	85.29975
798.0000      	12531.3    	85.58125
800.0000      	12500    	85.48499