File: data/Reflectance_measurements/Reflectance_2019_material/25_white/25_white_2.txt
Unit Serial No : 240-IM0P2424-EU
Integration Time : 10 ms
Time Average: 10
Binning Average: 2
FFT Smoothing: 0%
Project Name : RPS900-R
Sample Name :  SM240-IMOP2424-EU
Measurement No : 1
Measurement Time : 06/03/2019   14:50:37

Wavelength(nm)	Wavenumber(1/cm)	Transmittance(%)
300.0000      	33333.3    	15.11194
302.0000      	33112.6    	14.07294
304.0000      	32894.7    	15.73308
306.0000      	32679.7    	12.63914
308.0000      	32467.5    	12.09847
310.0000      	32258.1    	12.43984
312.0000      	32051.3    	11.52047
314.0000      	31847.1    	11.00042
316.0000      	31645.6    	11.57704
318.0000      	31446.5    	10.38070
320.0000      	31250    	9.71348
322.0000      	31055.9    	9.76519
324.0000      	30864.2    	8.98912
326.0000      	30674.8    	8.96602
328.0000      	30487.8    	9.04959
330.0000      	30303    	8.58356
332.0000      	30120.5    	9.34174
334.0000      	29940.1    	9.24012
336.0000      	29761.9    	8.89187
338.0000      	29585.8    	9.19853
340.0000      	29411.8    	8.66731
342.0000      	29239.8    	8.98480
344.0000      	29069.8    	8.99579
346.0000      	28901.7    	8.90221
348.0000      	28735.6    	9.26149
350.0000      	28571.4    	9.70925
352.0000      	28409.1    	9.47912
354.0000      	28248.6    	10.36180
356.0000      	28089.9    	10.49030
358.0000      	27933    	10.91569
360.0000      	27777.8    	11.80100
362.0000      	27624.3    	12.04448
364.0000      	27472.5    	12.14708
366.0000      	27322.4    	12.74234
368.0000      	27173.9    	13.15958
370.0000      	27027    	13.78128
372.0000      	26881.7    	14.07880
374.0000      	26738    	14.45461
376.0000      	26595.7    	15.40511
378.0000      	26455    	15.94406
380.0000      	26315.8    	16.87992
382.0000      	26178    	17.85679
384.0000      	26041.7    	18.41342
386.0000      	25906.7    	19.33791
388.0000      	25773.2    	20.32901
390.0000      	25641    	21.13398
392.0000      	25510.2    	21.86427
394.0000      	25380.7    	22.84314
396.0000      	25252.5    	24.05022
398.0000      	25125.6    	25.29308
400.0000      	25000    	26.82722
402.0000      	24875.6    	27.98189
404.0000      	24752.5    	29.78511
406.0000      	24630.5    	31.79926
408.0000      	24509.8    	33.87734
410.0000      	24390.2    	35.99563
412.0000      	24271.8    	37.63314
414.0000      	24154.6    	39.94447
416.0000      	24038.5    	41.43421
418.0000      	23923.4    	42.20791
420.0000      	23809.5    	43.03308
422.0000      	23696.7    	43.55888
424.0000      	23584.9    	44.25391
426.0000      	23474.2    	45.30975
428.0000      	23364.5    	45.74943
430.0000      	23255.8    	46.08615
432.0000      	23148.1    	46.97796
434.0000      	23041.5    	47.75691
436.0000      	22935.8    	48.45597
438.0000      	22831.1    	48.81416
440.0000      	22727.3    	49.32641
442.0000      	22624.4    	49.12038
444.0000      	22522.5    	49.26583
446.0000      	22421.5    	49.08773
448.0000      	22321.4    	48.81953
450.0000      	22222.2    	48.35073
452.0000      	22123.9    	48.42223
454.0000      	22026.4    	48.62894
456.0000      	21929.8    	48.67843
458.0000      	21834.1    	48.83262
460.0000      	21739.1    	49.15191
462.0000      	21645    	49.25420
464.0000      	21551.7    	49.18329
466.0000      	21459.2    	49.61507
468.0000      	21367.5    	49.74864
470.0000      	21276.6    	50.15157
472.0000      	21186.4    	50.65133
474.0000      	21097    	51.21290
476.0000      	21008.4    	51.63035
478.0000      	20920.5    	51.96593
480.0000      	20833.3    	52.26218
482.0000      	20746.9    	52.83988
484.0000      	20661.2    	53.26913
486.0000      	20576.1    	53.52979
488.0000      	20491.8    	54.13158
490.0000      	20408.2    	54.56495
492.0000      	20325.2    	54.88447
494.0000      	20242.9    	55.46740
496.0000      	20161.3    	55.75270
498.0000      	20080.3    	56.03177
500.0000      	20000    	56.22050
502.0000      	19920.3    	56.26832
504.0000      	19841.3    	56.36909
506.0000      	19762.8    	56.17994
508.0000      	19685    	55.85281
510.0000      	19607.8    	55.31980
512.0000      	19531.2    	54.73957
514.0000      	19455.3    	53.92511
516.0000      	19379.8    	53.04000
518.0000      	19305    	51.84696
520.0000      	19230.8    	50.88418
522.0000      	19157.1    	49.58469
524.0000      	19084    	48.39269
526.0000      	19011.4    	47.49443
528.0000      	18939.4    	46.49574
530.0000      	18867.9    	45.66436
532.0000      	18797    	45.05463
534.0000      	18726.6    	44.65852
536.0000      	18656.7    	44.13229
538.0000      	18587.4    	43.90768
540.0000      	18518.5    	43.88503
542.0000      	18450.2    	43.62384
544.0000      	18382.4    	43.63437
546.0000      	18315    	43.48077
548.0000      	18248.2    	43.41776
550.0000      	18181.8    	43.04779
552.0000      	18115.9    	42.61634
554.0000      	18050.5    	41.83656
556.0000      	17985.6    	40.97198
558.0000      	17921.1    	40.34230
560.0000      	17857.1    	39.24055
562.0000      	17793.6    	38.32872
564.0000      	17730.5    	37.72104
566.0000      	17667.8    	37.03929
568.0000      	17605.6    	36.48479
570.0000      	17543.9    	36.33624
572.0000      	17482.5    	36.35268
574.0000      	17421.6    	36.73412
576.0000      	17361.1    	37.29903
578.0000      	17301    	38.30445
580.0000      	17241.4    	39.67303
582.0000      	17182.1    	40.76408
584.0000      	17123.3    	42.06872
586.0000      	17064.8    	43.49874
588.0000      	17006.8    	44.42212
590.0000      	16949.2    	45.45878
592.0000      	16891.9    	46.42825
594.0000      	16835    	46.87756
596.0000      	16778.5    	47.47843
598.0000      	16722.4    	47.79202
600.0000      	16666.7    	47.74224
602.0000      	16611.3    	48.01641
604.0000      	16556.3    	47.83232
606.0000      	16501.7    	47.83747
608.0000      	16447.4    	47.66965
610.0000      	16393.4    	47.69698
612.0000      	16339.9    	47.79338
614.0000      	16286.6    	47.81463
616.0000      	16233.8    	47.81885
618.0000      	16181.2    	47.68963
620.0000      	16129    	47.82201
622.0000      	16077.2    	47.85311
624.0000      	16025.6    	47.74508
626.0000      	15974.4    	47.89961
628.0000      	15923.6    	48.08038
630.0000      	15873    	48.10762
632.0000      	15822.8    	48.28862
634.0000      	15772.9    	48.61010
636.0000      	15723.3    	48.80426
638.0000      	15674    	49.04614
640.0000      	15625    	49.64646
642.0000      	15576.3    	49.92146
644.0000      	15528    	50.60452
646.0000      	15479.9    	51.32690
648.0000      	15432.1    	51.77337
650.0000      	15384.6    	52.54283
652.0000      	15337.4    	53.11765
654.0000      	15290.5    	53.72119
656.0000      	15243.9    	54.50343
658.0000      	15197.6    	54.91410
660.0000      	15151.5    	55.69200
662.0000      	15105.7    	56.35481
664.0000      	15060.2    	56.70042
666.0000      	15015    	57.00741
668.0000      	14970.1    	57.34463
670.0000      	14925.4    	57.54634
672.0000      	14881    	57.41346
674.0000      	14836.8    	57.48711
676.0000      	14792.9    	57.45438
678.0000      	14749.3    	57.34837
680.0000      	14705.9    	57.22466
682.0000      	14662.8    	56.78965
684.0000      	14619.9    	56.47757
686.0000      	14577.3    	56.11985
688.0000      	14534.9    	55.90028
690.0000      	14492.8    	55.65313
692.0000      	14450.9    	55.27210
694.0000      	14409.2    	55.21245
696.0000      	14367.8    	55.31252
698.0000      	14326.6    	54.89594
700.0000      	14285.7    	54.80746
702.0000      	14245    	54.48238
704.0000      	14204.5    	53.96487
706.0000      	14164.3    	53.66645
708.0000      	14124.3    	53.73270
710.0000      	14084.5    	53.52274
712.0000      	14044.9    	53.30413
714.0000      	14005.6    	53.29139
716.0000      	13966.5    	53.38054
718.0000      	13927.6    	53.58379
720.0000      	13888.9    	54.06066
722.0000      	13850.4    	54.56669
724.0000      	13812.2    	54.96524
726.0000      	13774.1    	55.84360
728.0000      	13736.3    	55.89833
730.0000      	13698.6    	56.68252
732.0000      	13661.2    	57.40944
734.0000      	13624    	58.27982
736.0000      	13587    	59.32788
738.0000      	13550.1    	60.79514
740.0000      	13513.5    	62.13118
742.0000      	13477.1    	63.16435
744.0000      	13440.9    	64.94945
746.0000      	13404.8    	66.21033
748.0000      	13369    	67.86201
750.0000      	13333.3    	69.80546
752.0000      	13297.9    	71.13995
754.0000      	13262.6    	73.81500
756.0000      	13227.5    	75.48018
758.0000      	13192.6    	77.05035
760.0000      	13157.9    	78.84258
762.0000      	13123.4    	79.99238
764.0000      	13089    	81.00381
766.0000      	13054.8    	81.49861
768.0000      	13020.8    	82.42255
770.0000      	12987    	82.80879
772.0000      	12953.4    	83.51326
774.0000      	12919.9    	84.26492
776.0000      	12886.6    	84.04129
778.0000      	12853.5    	84.45345
780.0000      	12820.5    	84.49044
782.0000      	12787.7    	84.52279
784.0000      	12755.1    	84.93462
786.0000      	12722.6    	85.53712
788.0000      	12690.4    	85.78082
790.0000      	12658.2    	85.60902
792.0000      	12626.3    	84.76343
794.0000      	12594.5    	84.62875
796.0000      	12562.8    	85.25227
798.0000      	12531.3    	85.22622
800.0000      	12500    	85.66268